Class,EEG.AF3,EEG.F7,EEG.F3,EEG.FC5,EEG.T7,EEG.P7,EEG.O1,EEG.O2,EEG.P8,EEG.T8,EEG.FC6,EEG.F4,EEG.F8,EEG.AF4
0,-3.333057,-7.669987,-2.53448,-4.759447,-4.385271,4.412895,10.963492,15.374503,6.580104,2.267031,-1.724601,-4.655231,-4.952814,-5.583138
0,-2.742913,-4.805906,-2.639952,-3.049286,-2.751703,2.8961,14.484265,11.302511,3.255208,1.629174,-3.618084,-6.283777,-3.054308,-4.620073
0,-1.342891,-2.631163,0.368526,-0.649786,-1.588994,0.28691,10.816584,5.329501,0.502878,-0.313278,-3.336824,-4.547247,-1.080466,-1.813751
0,1.678143,2.230618,2.624885,2.191694,0.521712,-0.865754,1.173382,-5.004294,-4.847341,-2.077432,-1.195983,-1.201006,2.470443,2.300933
0,4.892544,9.224451,2.044786,4.76447,3.728579,-0.211573,-7.079843,-17.171303,-11.867542,-3.351892,0.895889,1.876532,6.444497,5.810406
0,6.816162,13.965692,1.547558,6.395527,5.475154,0.77786,-9.822128,-25.340401,-15.723567,-5.168781,2.122634,3.726068,7.749091,7.480387
0,6.629073,12.873298,3.230096,6.424407,4.238363,-0.152558,-9.753069,-25.249996,-13.217339,-6.384227,3.11709,4.347602,6.317678,7.579582
0,3.947058,6.570059,4.21325,4.318723,1.707023,-3.67961,-9.468042,-16.49201,-6.182071,-4.19316,3.854142,4.539713,4.627607,6.23983
0,0.268076,-0.026996,1.453386,0.864498,-0.117401,-7.192849,-7.37617,-3.301667,0.499111,1.183427,3.158525,4.554781,2.99655,3.03673
0,-1.523701,-2.294655,-2.863453,-1.787383,-1.128179,-6.93419,-2.235641,7.274465,3.589205,5.452553,0.893377,3.051797,-0.236685,-1.256253
0,-1.147014,-1.496077,-4.284821,-2.486766,-1.432041,-2.047297,3.826518,11.615161,4.111545,4.991738,-1.236163,-1.006384,-4.760703,-4.647697
0,-1.458409,-2.64623,-2.366226,-2.398872,-0.60835,4.464376,8.649374,12.874553,5.034429,1.011406,-2.101289,-5.743858,-8.358069,-6.35158
0,-3.582927,-6.506022,-0.683688,-3.014128,0.337135,8.628029,11.985571,15.075664,7.082354,-1.94308,-2.677621,-7.745324,-9.734235,-7.222984
0,-5.442508,-9.180504,-1.449619,-4.178093,-0.426285,8.777448,13.213572,16.871209,8.702111,-1.154547,-3.758714,-5.986193,-8.553947,-7.433929
0,-6.19965,-9.73549,-2.982738,-4.976671,-2.092499,6.362881,11.186993,14.962658,9.406516,1.376793,-3.944547,-2.685155,-4.666531,-6.012561
0,-6.876432,-10.334424,-2.783093,-4.853619,-1.959403,3.881765,6.570059,9.729212,9.586071,2.057342,-1.999583,-0.423774,0.412473,-3.005339
0,-5.662242,-8.525068,-0.870776,-3.166059,-0.443864,1.933035,0.674899,2.881032,7.181549,0.967459,0.448886,0.313278,3.968404,0.298211
0,0.620907,0.349692,1.030241,0.371037,-0.936069,-0.939835,-6.96307,-6.048975,-0.382338,1.244952,1.331591,1.065398,5.741346,3.516378
0,8.790004,11.852474,2.149003,4.171815,-3.144713,-5.038196,-15.72859,-15.999805,-10.000427,2.972693,1.754736,3.462387,7.776715,6.981904
0,10.864297,15.419706,2.906145,6.023862,-1.715812,-7.922367,-20.636829,-21.86483,-14.363725,2.130168,3.685888,6.567548,9.540868,9.363825
0,5.811661,10.596849,3.263998,6.114267,5.261698,-7.492944,-17.293099,-20.553957,-11.630229,-2.366226,5.288066,6.76217,7.78676,8.450986
0,1.632941,7.387471,2.719056,6.085388,10.894432,-4.866176,-8.541391,-15.009116,-7.703889,-5.563048,3.215028,2.472954,2.569637,4.707967
0,2.74668,8.273943,1.728368,5.270487,7.58586,-2.319768,-0.694989,-8.311611,-6.48091,-3.923201,-0.988805,-2.147747,-1.833841,1.094277
0,3.883021,4.887521,1.207284,1.750969,-2.00335,-0.26682,5.074609,0.330857,-4.618817,-0.95867,-2.361203,-2.262009,-3.561581,-1.103067
0,0.345925,-4.267242,0.712567,-2.828296,-7.577071,1.699489,11.578748,9.966525,0.560637,-1.027729,-0.732657,0.067176,-5.216495,-3.282832
0,-4.292355,-9.446696,-0.772837,-4.436752,-4.697922,2.82704,17.683598,15.471186,5.298111,-2.314745,-0.947369,-0.907189,-7.612228,-5.851841
0,-5.526634,-7.762903,-2.456631,-3.379515,-0.384849,2.455375,18.464597,15.270286,6.485932,-0.900911,-3.551536,-4.592449,-7.36487,-6.757147
0,-5.090933,-8.339235,-2.747936,-4.170559,-2.616095,1.454642,12.890877,14.270809,7.612228,2.564615,-2.945069,-4.783304,-3.125879,-4.974159
0,-5.740091,-13.427028,-2.368737,-7.274465,-8.265153,0.922257,5.289321,14.666331,11.534801,5.010573,2.013395,-0.80925,1.087999,-2.638696
0,-5.755158,-12.377326,-3.203728,-7.294555,-7.106211,1.447108,-0.875799,11.608883,13.499855,5.554258,3.978449,0.927279,1.592761,-1.997072
0,-3.405883,-1.823796,-4.291099,-2.098778,2.81574,3.937013,-5.692377,2.621118,8.330446,4.1015,-0.814273,-1.512401,0.021973,-2.189183
0,-0.718845,6.253641,-2.981482,2.764259,10.834162,7.762903,-9.7154,-6.791049,-0.399917,0.333369,-4.780793,-2.092499,0.310767,-0.776604
0,1.125668,5.408606,0.037041,2.884799,8.192327,8.353047,-12.627195,-11.85373,-5.536679,-2.874754,-0.988805,1.757248,3.472432,2.651253
0,4.194416,5.622062,1.558859,2.057342,0.624674,1.997072,-14.260764,-14.770547,-6.660464,-1.444597,4.640163,3.95208,6.670509,5.820451
0,8.290266,13.214828,1.753481,5.070843,-0.705034,-6.851319,-13.595282,-17.441262,-8.206139,1.985771,2.971437,0.961181,6.124312,6.428173
0,9.230729,17.522878,3.692166,8.805072,3.692166,-9.797016,-8.717178,-16.183126,-10.513978,0.259287,-2.77556,-1.283877,1.390605,4.676576
0,5.687355,9.656386,6.536157,7.250608,3.741135,-6.60145,-0.715079,-9.04113,-9.99666,-5.581882,-2.789371,1.865231,-2.79565,2.785605
0,1.735902,-1.438319,5.671031,1.590249,-2.692688,-4.974159,5.746369,-0.678665,-6.3001,-6.13938,2.285866,4.952814,-1.759759,2.002094
0,-0.092288,-4.726801,0.956159,-1.973215,-6.410595,-6.979393,8.870364,5.018106,-2.711523,0.232918,3.073143,1.968193,1.803706,0.968715
0,-2.223084,-4.701689,-2.014651,-2.167837,-2.818251,-5.471387,11.980548,9.932623,-0.250497,3.328035,-1.698233,-3.021662,0.956159,-1.831329
0,-5.935968,-9.738002,-0.992572,-3.172337,0.756514,2.518156,15.654508,15.019161,3.196194,-1.457153,-3.44983,-3.119601,-4.298633,-4.980438
0,-7.998961,-15.109566,-0.533013,-6.092921,-1.497333,9.08131,13.955647,16.213261,8.101922,-4.544736,0.598305,-0.093544,-6.344047,-5.736324
0,-6.234807,-11.73319,-3.623107,-7.040919,-4.304911,7.676265,4.104011,11.495877,11.847452,1.307734,3.060587,-0.008162,-2.401383,-4.146702
0,-3.020407,-2.604795,-6.560014,-4.372715,-2.046041,2.955114,-6.457053,4.972904,11.951669,8.437174,0.399917,-2.347391,1.305222,-2.61484
0,-0.755259,2.599772,-5.480176,-1.469709,1.021451,1.955636,-9.604905,-0.047086,8.122012,7.310878,-0.928535,-2.08371,0.956159,-1.596527
0,1.198494,2.685155,-1.959403,-0.574449,-0.160092,3.551536,-7.408817,-5.077121,1.931779,0.947369,2.9074,0.755259,0.659831,0.543058
0,3.118345,3.533957,0.948625,0.646019,-1.05912,3.397094,-6.23983,-10.265364,-3.61934,-2.903633,5.280532,1.571415,2.45412,3.13718
0,3.424718,6.647908,2.720312,3.862931,3.698444,1.959403,-5.892021,-11.644041,-5.855608,-3.722301,0.433819,-0.609606,1.796172,3.179871
0,2.288377,8.435918,3.04803,6.153191,8.546413,0.835619,-2.864709,-8.119501,-5.365914,-3.611806,-6.248619,-2.138958,-1.769804,0.810506
0,2.097522,7.216706,1.236163,4.62384,5.098466,-2.072409,0.932302,-4.114056,-5.118556,-0.82934,-6.755892,-1.072932,-1.266298,0.026996
0,2.8961,3.87172,-0.293188,1.341636,-3.192427,-7.024595,1.830074,-1.911689,-5.678565,3.629385,-2.479232,0.759025,4.191905,2.058598
0,1.909178,-1.050331,1.982004,0.028252,-5.844308,-8.516278,2.260753,1.405672,-4.510834,2.942558,-0.124935,1.553836,5.034429,2.926235
0,-1.100556,-5.691121,5.72879,0.489066,-1.514912,-3.643197,5.750136,6.288799,-1.183427,-3.879254,-0.671132,1.504867,-2.308467,0.229152
0,-2.597261,-6.092921,4.598727,0.073454,1.699489,1.526212,7.948736,7.654919,1.066654,-7.049708,-0.101078,1.222351,-7.41635,-2.533224
0,-0.834363,-1.356703,-1.62164,-1.296433,0.240452,0.539291,2.223084,3.366959,0.905934,-0.560637,2.165326,0.835619,-2.816995,-1.788638
0,1.558859,3.810195,-5.907089,-1.497333,-1.305222,-3.768759,-8.531346,-1.473476,1.282621,7.850797,3.104533,0.48781,3.830285,0.55687
0,1.966937,4.849852,-4.586171,-0.448886,-0.182693,-4.518367,-14.543279,-2.897355,3.42974,8.705878,2.64623,0.322068,3.963381,1.291411
0,0.952392,2.285866,-1.587738,-0.181438,0.664854,-0.8984,-11.689243,-3.717279,3.574137,3.486243,3.512612,0.337135,1.94308,1.32029
0,-0.318301,-1.204772,-0.373549,-1.081721,-0.23543,3.123368,-3.665798,-6.129335,-0.470232,-1.607828,4.989227,0.490322,4.034952,2.449097
0,-2.12389,-4.542224,0.687455,-1.457153,-0.102333,6.006283,5.709956,-5.75767,-4.28231,-5.475154,3.187405,0.193994,5.358381,2.597261
0,-4.073876,-6.85383,2.555825,-0.840641,1.935546,8.533857,14.402649,0.833107,-3.145969,-8.732246,-1.881554,-1.532491,-0.45642,-0.741447
0,-4.274776,-6.367903,2.488021,-0.686199,2.520668,9.626251,18.612761,8.569014,1.022707,-8.611706,-5.264209,-4.067598,-8.360581,-5.207706
0,-2.491788,-3.443552,-0.48781,-1.637963,-0.191483,7.523079,15.425984,10.799005,4.170559,-3.727324,-4.525901,-4.754425,-9.969037,-6.689343
0,-1.347914,-1.587738,-3.235118,-2.717801,-3.567859,3.189916,7.995194,9.176737,6.890243,2.328557,-3.014128,-2.359948,-6.389249,-5.362148
0,-2.302189,-2.592238,-3.798894,-3.161037,-4.674065,-1.027729,1.637963,9.09261,10.421062,6.341535,-3.526423,0.759025,-3.176104,-3.993516
0,-2.761748,-3.026685,-3.580415,-2.719056,-3.446063,-4.245897,-3.621851,8.787493,10.491377,8.551436,-3.709745,2.100033,-0.304489,-2.51439
0,0.328346,1.351681,-3.02794,-0.656064,-1.169615,-6.502255,-10.604383,2.005861,3.221307,8.725968,-0.91849,2.358692,3.991005,0.895889
0,5.590671,8.864086,-0.56817,3.001572,0.824318,-7.932412,-17.608261,-9.706611,-6.121801,5.893277,2.736635,2.933768,6.919123,5.173804
0,8.663186,13.015183,3.41844,6.074087,1.369259,-9.630018,-20.187315,-17.064575,-9.356291,2.323535,4.151725,2.868476,6.675532,7.678776
0,7.936179,10.92959,6.5123,6.899033,1.421996,-12.006916,-18.297599,-16.89381,-8.394483,0.613373,4.23334,1.288899,7.058497,8.699599
0,6.026373,7.289532,8.002727,7.012039,4.08141,-11.723145,-14.945079,-16.238373,-11.831129,-1.971959,4.783304,0.067176,9.586071,9.859797
0,5.059542,7.028362,8.184793,7.785504,9.064986,-4.755681,-9.157903,-18.366658,-18.817428,-8.291521,3.92069,0.67741,8.413317,9.254586
0,3.355658,6.931679,5.40735,6.350325,10.051908,6.433196,2.644975,-14.406416,-17.683598,-13.130701,-0.212828,0.995083,-0.167626,3.42974
0,-1.378049,0.101078,-1.035263,-0.329602,2.822018,13.77107,18.350335,2.710267,-3.641941,-9.730468,-4.265987,-1.248719,-10.139802,-5.986193
0,-7.711422,-12.197771,-7.17527,-8.869109,-6.688088,13.483532,29.521633,23.37158,12.68621,-1.637963,-4.007328,-4.22204,-13.872775,-12.682443
0,-11.961714,-20.425884,-9.007228,-12.750246,-9.287232,10.375859,30.430705,31.553234,19.702643,2.303444,-1.34038,-4.613795,-11.617673,-13.361736
0,-12.683698,-19.736545,-8.425873,-11.425562,-5.584393,9.81585,23.401715,25.807493,18.753391,1.935546,-0.879565,-2.429007,-7.764159,-10.782682
0,-10.885643,-14.947591,-9.023551,-9.745535,-4.056297,10.010472,13.858964,17.863152,17.064575,3.918179,-1.956892,-0.197761,-3.684632,-8.216184
0,-6.861364,-9.975315,-9.051175,-8.655653,-6.814906,5.801616,3.621851,12.574459,14.840863,8.638074,-0.774093,0.725124,0.966204,-5.035685
0,-0.401172,-1.921734,-4.620073,-3.988494,-6.777237,-2.914934,-8.664442,3.388305,8.120756,10.13729,1.653031,0.725124,4.932724,0.332113
0,6.198394,9.204361,3.019151,4.446797,-0.559381,-10.642052,-22.128511,-11.063942,-1.062887,6.991949,1.28011,0.65732,7.201639,6.455797
0,9.375126,15.354413,9.372615,10.557925,5.623318,-13.193482,-31.418883,-20.988404,-7.099933,2.858431,-0.751492,1.533746,8.299055,10.476309
0,9.248308,13.118145,12.841907,11.323856,6.816162,-11.841174,-31.137622,-21.360069,-10.632007,-1.497333,0.19525,3.359425,7.948736,11.617673
0,9.456741,11.557403,13.563892,10.919545,6.887732,-9.957736,-21.760613,-20.154669,-16.655241,-7.066031,3.130902,3.867954,5.338291,10.870576
0,10.810305,16.922689,10.058186,11.955436,9.459253,-7.865864,-9.103911,-22.778925,-23.425572,-10.385904,2.510623,1.214817,2.088733,8.541391
0,9.165436,19.13259,2.697711,9.97657,9.653875,-3.382027,2.152769,-20.601671,-22.082053,-7.707656,-1.614106,-2.329813,0.640997,4.298633
0,1.944336,6.818673,-3.616828,1.715812,2.730357,2.958881,11.546102,-5.388516,-9.274676,-2.231874,-3.169826,-3.066865,0.08601,-1.054097
0,-6.734546,-11.886376,-5.845563,-7.594649,-5.884488,6.639118,18.86263,14.650007,6.689343,1.021451,-0.490322,-1.627918,-2.074921,-5.722512
0,-10.624473,-19.138868,-7.351058,-11.189504,-8.214928,5.242863,21.527067,24.884609,15.328045,3.207495,1.457153,-1.432041,-5.073354,-8.623006
0,-8.862831,-13.172137,-10.722412,-10.010472,-6.082876,2.800672,18.662986,23.272386,14.899877,6.635352,0.505389,-2.185416,-6.105478,-9.63504
0,-5.782782,-8.069276,-11.661619,-8.973326,-6.334002,4.230829,13.748469,18.349079,10.953447,7.481643,0.343414,-0.559381,-5.088421,-8.638074
0,-4.497022,-9.979082,-6.252386,-8.237529,-8.079321,7.814384,9.751813,14.156547,8.006494,2.285866,2.155281,2.948836,-4.23334,-5.840541
0,-3.872976,-10.220162,1.231141,-4.711734,-5.175059,8.209906,5.156225,8.340491,6.34028,-3.906878,1.691955,3.954592,-4.297377,-2.741658
0,-1.876532,-3.28911,4.592449,0.738935,1.524957,5.255419,-1.787383,0.982527,4.803394,-4.798372,-2.366226,1.362981,-4.271009,-0.870776
0,0.840641,3.914412,4.778282,4.163025,5.352103,3.46992,-8.862831,-5.295599,2.891077,-2.842108,-4.854875,-1.144502,-2.919956,0.510412
0,2.181649,5.256675,5.964848,5.029407,5.683588,3.3092,-13.699499,-11.224662,0.183949,-3.344358,-2.542013,-1.361726,1.096789,3.468665
0,2.192949,4.998016,7.368637,6.116778,7.466575,0.096055,-17.316955,-17.755169,-3.717279,-4.18186,0.580727,-1.013917,7.523079,7.642363
0,3.256464,8.375648,5.707445,7.678776,9.569748,-7.182804,-19.529367,-20.139601,-7.877165,-0.379827,0.319557,-1.548814,12.108622,9.641318
0,6.067809,12.084765,1.758503,6.816162,5.448786,-12.728901,-15.851641,-13.901655,-9.943924,5.790316,-1.104322,-2.219318,10.426084,7.357336
0,7.379937,10.270387,-1.651775,2.670087,-3.552792,-11.956691,-4.658997,-3.646964,-8.332957,7.965059,0.38736,-2.464165,4.697922,2.891077
0,4.011095,3.516378,-4.380249,-1.910434,-7.559492,-7.167737,7.00325,2.705245,-4.156747,5.470131,3.852886,-2.180393,1.218584,-0.423774
0,-1.852675,-3.144713,-6.562525,-4.284821,-3.584182,-2.888566,11.217128,5.36717,-0.338391,2.604795,5.052008,-0.342158,0.819295,-2.062364
0,-4.690388,-6.734546,-5.733813,-4.491999,-0.232918,-0.374804,9.437907,9.5145,1.295177,1.069165,2.597261,3.059331,-1.315267,-3.39835
0,-2.966415,-7.351058,-1.236163,-3.641941,-3.115834,1.086744,8.605428,13.80246,1.463431,-0.794183,-0.718845,5.340802,-6.052741,-4.421684
0,-0.63723,-5.897044,2.760492,-2.31349,-6.441985,1.771059,10.051908,11.932834,1.724601,-3.415928,-1.781104,4.710478,-8.48991,-3.97217
0,-0.506645,-3.263998,3.091977,-0.81804,-4.168048,2.501833,9.03234,4.210739,2.239408,-5.294344,-0.759025,2.862198,-6.76217,-2.366226
0,-0.581982,-0.182693,2.142724,0.63723,0.462698,4.561059,3.580415,-2.029718,2.179138,-5.386004,-0.689966,1.19975,-4.666531,-1.227374
0,0.903422,2.658786,2.656275,1.94308,2.38506,7.199127,-2.661298,-3.536468,1.617873,-3.824007,-3.084443,-1.366748,-3.979704,-0.910956
0,1.543791,3.763737,2.74668,2.441563,2.978971,8.133312,-6.15947,-4.319979,1.406928,-1.776082,-4.746891,-3.983471,-1.801194,-0.230407
0,-0.638485,1.990794,0.140002,1.314012,4.788327,6.872665,-6.930424,-7.025851,1.354192,-0.877054,-1.787383,-3.144713,2.719056,1.224862
0,-2.79565,-0.544314,-3.150992,-0.652297,5.539191,4.731824,-5.974893,-8.535113,0.477765,-0.816784,3.468665,0.093544,5.928435,2.229363
0,-1.94308,-0.393639,-4.287332,-1.419484,3.350636,2.199228,-3.26902,-5.669776,-0.553103,0.894633,4.416662,-0.510412,5.561792,1.622896
0,-0.54808,1.032752,-3.689655,-0.74898,1.287644,-0.661087,0.745214,0.241708,0.495344,4.166792,0.004395,-5.476409,3.374493,-0.224129
0,-2.140213,-1.253742,-2.649997,-0.692477,1.335357,-2.656275,3.944547,5.786549,3.621851,5.041963,-3.306689,-6.656697,1.381816,-1.755992
0,-4.203205,-6.182071,-1.01894,-1.900389,0.121168,-3.694677,3.967148,8.476098,5.063309,2.819506,-1.631685,-0.692477,0.421262,-1.542536
0,-1.700744,-5.876954,0.57696,-2.169093,-4.313701,-6.23104,0.718845,7.211684,1.858953,2.781838,0.990061,4.22204,1.533746,0.397405
0,3.855397,1.214817,0.754003,-0.269332,-7.554469,-10.493888,-2.769281,3.281577,-3.43853,6.399294,0.716334,2.157792,3.82024,2.327301
0,5.725023,5.345824,1.091766,1.679399,-5.712467,-11.49211,-3.080677,0.303233,-5.581882,6.047719,0.172648,-0.214084,3.13718,2.578426
0,2.410173,0.580727,4.461864,1.826307,-1.781104,-5.991216,-0.855709,0.00565,-3.572882,-2.559592,1.901644,3.896833,-1.931779,1.610339
0,-0.072198,-4.267242,8.425873,1.592761,-0.209062,0.868265,-0.502878,-0.460187,-1.499844,-10.272898,2.737891,8.536368,-6.012561,1.135713
0,1.928013,0.389872,6.724501,2.43403,-0.077221,2.386316,-3.662031,-3.87172,-2.126401,-7.302089,0.514179,5.514078,-4.243385,1.390605
0,4.027418,8.366859,-0.781627,2.599772,1.591505,0.751492,-5.85812,-7.963803,-3.274043,0.741447,-0.534269,-0.961181,0.23543,1.057864
0,1.571415,7.725234,-6.46082,0.411217,3.945802,3.124623,-2.877265,-8.897988,-2.086221,1.74218,2.390083,-2.08371,1.669354,-0.176415
0,-2.430263,0.787905,-5.718745,-1.911689,4.124101,9.334946,2.613584,-7.022084,0.428796,-3.53898,4.055042,0.303233,0.167626,-1.193472
0,-2.369993,-0.707545,-2.627396,-1.511145,2.047297,11.952924,5.271743,-4.740613,1.656798,-4.588682,-0.214084,-1.477243,-1.002617,-1.690699
0,0.535524,3.419695,-1.851419,0.216595,0.182693,8.257619,5.224029,-1.301456,1.585227,0.148792,-5.599461,-6.415617,-1.847653,-2.555825
0,0.163859,2.005861,-2.009628,-0.029507,0.432563,3.741135,6.513556,4.970393,1.84263,2.150258,-5.492733,-7.250608,-3.350636,-3.687144
0,-4.416662,-6.67302,-0.844408,-1.926757,2.544525,2.351158,9.220684,11.158114,2.427751,-0.755259,-2.440308,-3.57916,-3.28911,-3.778804
0,-7.013295,-10.766359,-0.172648,-2.429007,3.761225,0.819295,8.9118,12.180193,2.426496,-0.923512,-2.719056,-1.383071,-0.167626,-2.526946
0,-3.512612,-4.68411,-1.005128,-0.966204,0.669876,-4.351369,3.419695,8.015284,2.43403,4.64393,-4.853619,-1.880299,2.891077,-0.823062
0,2.240663,1.786127,0.17516,0.23543,-5.835518,-10.13729,-4.545991,3.456108,3.166059,8.586593,-2.740402,-0.696244,3.1083,1.202261
0,4.243385,0.000628,4.911378,0.263053,-9.318623,-11.171926,-11.011206,1.067909,3.024173,5.28681,3.176104,3.279065,2.471698,3.776293
0,2.141469,-4.577382,7.791782,0.23543,-5.483943,-7.207917,-13.310255,-0.897144,0.348436,-0.805484,6.852575,6.341535,3.153503,5.418651
0,-0.021973,-3.302922,3.845352,0.402428,1.276343,-2.805695,-10.508955,-3.75118,-2.997805,-2.862198,6.514812,6.3114,3.577904,4.323746
0,-0.220362,1.827563,-3.142202,-0.077221,3.77127,-1.045308,-4.793349,-6.111756,-3.723557,-0.826829,5.482688,4.450564,2.680132,1.728368
0,0.089777,3.595483,-5.633363,-0.834363,1.743436,-0.363504,-0.62844,-6.981904,-2.044786,0.6975,4.812184,2.346136,2.526946,0.674899
0,-0.158837,1.752225,-2.701478,-0.56817,0.17516,2.111334,0.570682,-7.254375,-1.158314,-0.839385,2.526946,1.015173,3.193683,1.334102
0,0.205295,1.82254,0.35597,0.761537,0.804228,5.810406,2.230618,-7.197872,-2.336091,-4.075132,-1.056609,0.992572,0.833107,0.850686
0,2.112589,5.733813,0.60835,2.258242,1.651775,7.039663,6.071576,-5.36717,-3.657009,-5.848075,-3.672076,0.460187,-5.516589,-1.875276
0,4.139169,9.64383,-0.019462,3.53019,2.386316,4.209484,7.992682,-1.057864,-3.276554,-3.899344,-5.429951,-3.252697,-10.488865,-4.478187
0,3.867954,8.904266,0.173904,3.830285,3.520145,0.544314,4.834785,4.07262,-1.13948,0.711312,-7.181549,-8.222462,-9.19306,-4.723034
0,0.678665,2.166581,0.403684,1.639219,2.717801,-0.216595,0.79795,7.491688,1.914201,3.896833,-6.645397,-8.660675,-3.216284,-2.96767
0,-3.187405,-6.941724,0.273098,-2.44533,-1.644241,1.141991,1.341636,7.749091,4.32249,2.928746,-1.930524,-3.384538,2.436541,-0.661087
0,-4.470654,-11.335157,0.589516,-4.743124,-5.704933,1.410695,4.368948,5.237841,4.16177,-0.162603,3.258975,1.739669,4.573615,1.074187
0,-2.377526,-7.515545,0.917234,-3.236374,-5.059542,0.308256,3.937013,2.218062,1.725857,-1.314012,3.857909,2.289633,2.975204,1.276343
0,0.102333,-1.060376,-0.06592,-0.791672,-1.558859,-0.121168,0.006906,1.254997,0.084755,0.344669,0.997594,0.712567,0.091033,0.004395
0,-0.344669,-0.058387,-1.512401,-0.555614,0.630952,-0.101078,-2.38506,2.176626,0.750236,2.02344,-0.377315,0.671132,-0.17516,-0.742702
0,-2.9074,-3.81145,-1.134457,-1.114367,1.88281,-1.562626,-2.033485,1.783616,1.241186,1.517423,0.578215,1.637963,3.213773,0.707545
0,-3.69091,-4.606261,0.689966,0.070943,3.817729,-3.677099,-2.759236,-1.654286,-0.310767,-0.011928,0.987549,1.994561,6.217228,2.935024
0,-1.125668,-0.113634,1.044052,1.556347,3.738624,-3.713512,-5.984938,-5.201428,-1.437063,0.028252,0.693733,2.273309,4.999272,3.242652
0,2.200483,3.999794,-0.691222,0.81804,-0.399917,-2.170348,-8.272687,-5.075865,0.080988,1.930524,2.059853,2.657531,1.256253,1.602806
0,3.562837,4.308678,-1.712045,-0.538035,-3.86042,-2.145236,-6.99446,-2.318512,1.403161,3.012873,4.26222,1.959403,-1.207284,0.268076
0,3.207495,3.953336,-0.52799,0.457675,-1.806217,-3.448575,-3.545258,-1.302711,-0.833107,1.086744,3.778804,1.051586,-2.174115,0.101078
0,2.533224,4.944024,0.804228,2.42524,1.924246,-2.362459,0.058387,-3.040497,-4.204461,-2.426496,0.42754,2.316001,-3.328035,-0.072198
0,1.774826,4.311189,0.652297,1.928013,0.868265,1.926757,3.527679,-3.718534,-4.028674,-4.210739,-2.234385,4.200694,-4.122845,-0.877054
0,0.741447,0.79795,0.411217,-0.323323,-2.854664,5.363403,6.087899,-0.743958,-0.760281,-3.22884,-2.543269,1.956892,-3.341847,-1.560114
0,-0.217851,-1.812495,1.130691,-0.800461,-2.161559,4.879987,5.770226,3.098255,1.432041,-1.218584,-2.346136,-4.34258,-1.82254,-1.590249
0,-0.941091,-1.190961,1.206028,0.633463,2.672598,2.282099,2.83583,3.756203,1.384327,0.343414,-2.901122,-8.354303,-0.509156,-1.216073
0,-1.472221,-0.197761,-0.147536,0.957414,4.309934,0.883332,0.983782,1.804961,1.011406,1.26002,-3.133413,-6.538668,0.96997,-0.691222
0,-1.272576,-1.374282,-0.701267,-0.510412,0.177671,1.391861,2.931257,1.23993,0.683688,1.138224,-2.298422,-3.024173,1.901644,-0.283143
0,-0.325835,-3.13718,0.635974,-1.612851,-4.029929,2.392594,6.531135,3.295388,-0.313278,-0.239197,-1.109345,-2.392594,0.771582,-0.466465
0,-0.392383,-3.722301,1.174637,-1.578949,-3.242652,2.653764,7.313389,4.746891,-0.505389,-1.457153,-0.042063,-2.941302,-0.961181,-1.045308
0,-2.482999,-3.852886,-0.716334,-1.487288,0.835619,1.876532,3.778804,2.957625,1.600294,-1.126924,1.011406,-1.087999,-0.313278,-0.993827
0,-4.070109,-3.653242,-2.06362,-1.266298,3.528935,0.309512,-1.686933,-0.28691,3.83154,-0.132468,1.703256,2.127657,1.649264,0.008162
0,-2.165326,-1.535002,-0.57696,-0.119912,2.719056,-2.221829,-6.60145,-1.846397,3.291622,0.686199,1.939313,3.651986,1.659309,1.121901
0,1.837608,2.380038,0.579471,1.021451,-0.296955,-6.678043,-10.847974,-2.034741,0.864498,3.081932,2.724079,4.155492,1.173382,2.041019
0,4.156747,5.679821,-1.642986,0.976249,-2.668831,-12.13499,-14.476731,-3.533957,-1.370515,7.457786,4.188138,6.09041,3.939524,3.339335
0,4.21325,6.964325,-3.776293,0.82934,-2.387571,-13.082987,-14.854674,-6.307633,-4.097733,8.741035,4.163025,8.145869,7.084865,4.363926
0,3.835307,6.116778,-1.148269,1.678143,-0.242963,-4.237107,-8.584082,-6.74208,-7.389982,2.136446,1.130691,6.808628,3.635663,3.001572
0,2.401383,2.303444,3.633152,1.812495,1.253742,10.193793,3.21754,-2.624885,-7.066031,-8.22874,-2.749191,2.449097,-5.493988,-1.101811
0,-1.739669,-3.881765,4.332535,-0.260542,1.428274,17.691132,13.740935,3.331802,-0.546825,-12.81805,-4.130379,-1.141991,-11.062686,-4.944024
0,-5.964848,-7.750347,0.933557,-2.195461,1.884066,11.736957,16.577392,6.362881,6.607728,-8.628029,-2.86722,-2.958881,-8.326679,-5.411117
0,-5.500266,-5.305644,-1.173382,-1.180916,2.794394,0.01444,12.102344,4.832274,6.79356,-1.660564,-1.450875,-5.358381,-2.1038,-2.803183
0,-0.77786,0.438841,-0.180182,1.144502,1.686933,-6.102966,5.92969,1.356703,1.168359,2.37376,-1.096789,-8.045419,1.965681,0.140002
0,2.931257,3.02794,0.882077,1.256253,-2.57466,-5.132368,1.797428,-0.550592,-2.226851,3.776293,-0.854453,-7.393749,3.481221,1.580204
0,3.123368,1.206028,0.632207,-0.682432,-7.012039,-2.992783,-1.244952,0.101078,-0.035785,4.750658,0.019462,-3.430996,3.835307,1.730879
0,1.866487,-1.05912,0.443864,-1.792405,-7.337246,-1.974471,-4.58366,1.455897,3.127135,5.203939,0.967459,-1.398139,3.575393,1.504867
0,0.533013,-1.428274,0.122423,-1.214817,-2.367481,0.240452,-6.68181,1.246208,2.80695,4.137913,1.204772,-3.307945,3.496288,1.211051
0,-1.266298,-0.642252,-1.305222,-0.119912,4.729312,3.366959,-5.870676,-0.693733,0.15507,1.512401,0.612117,-4.129124,3.103278,0.549336
0,-2.020929,1.15957,-1.966937,1.152036,8.763636,4.016117,-3.613062,-2.441563,-1.694466,-1.850164,-0.201528,-0.530502,-0.171393,-0.602072
0,0.062153,3.782571,-0.289422,2.341113,6.855086,1.654286,-2.280843,-2.303444,-1.976982,-3.938269,-0.273098,3.361937,-5.408606,-1.586482
0,2.167837,4.146702,0.573193,1.693211,1.428274,-0.912212,-1.738413,-0.560637,-1.617873,-2.515645,0.549336,4.540969,-6.273732,-1.479754
0,0.180182,-0.03453,-2.165326,-1.258764,-2.441563,-2.481743,-0.865754,1.152036,-1.356703,1.164592,0.976249,7.895999,-0.481532,-0.283143
0,-3.582927,-4.996761,-4.436752,-3.424718,-3.210006,-3.944547,-0.393639,1.425762,-1.644241,2.300933,0.212828,16.080165,4.593705,1.021451
0,-3.02794,-5.074609,-1.270065,-2.199228,-3.63943,-4.660253,-0.94988,-0.050853,-2.416451,-0.830596,-0.140002,19.710177,2.796905,1.754736
0,1.619129,-0.875799,4.007328,0.511667,-4.692899,-3.081932,-0.324579,-2.190438,-2.637441,-3.69091,1.428274,9.044896,-1.093022,1.975726
0,3.950825,2.282099,4.628862,1.630429,-3.242652,-0.212828,3.235118,-2.963903,-1.475987,-2.408917,2.776815,-9.186782,-0.544314,1.528724
0,1.837608,2.649997,1.393116,1.595272,1.715812,1.700744,6.654186,-1.371771,0.463954,0.352203,0.674899,-18.950524,1.282621,0.000628
0,-0.101078,2.818251,0.183949,2.138958,5.501522,2.833318,5.664753,0.928535,2.169093,0.563148,-3.368215,-16.126623,-1.248719,-1.958148
0,0.594539,3.307945,1.408184,2.31349,4.321234,4.293611,1.656798,1.388094,3.405883,-0.662342,-4.333791,-10.25783,-4.755681,-2.680132
0,0.754003,1.752225,0.977504,0.71759,1.022707,4.642674,-0.250497,0.019462,3.855397,-0.47651,-1.3002,-7.116256,-3.025429,-1.572671
0,-1.229885,-1.605317,-0.807995,-1.052842,-0.122423,2.118868,0.664854,-0.633463,2.682643,0.323323,1.130691,-2.968926,1.454642,0.047086
0,-2.177882,-3.393327,-0.607095,-1.173382,-0.290677,-1.194727,0.231663,0.81804,0.323323,0.317045,0.291933,3.59046,2.499322,0.762792
0,-0.52799,-2.685155,0.241708,-1.140736,-2.623629,-1.899133,-2.882288,2.901122,-0.993827,1.286388,-0.828085,7.39626,1.152036,0.602072
0,0.579471,-2.04353,-1.599039,-2.531968,-5.284299,-0.770326,-4.915145,3.613062,-0.138747,3.895577,0.4966,6.587638,1.811239,0.299467
0,-0.804228,-2.45412,-3.787594,-3.204983,-3.835307,-1.144502,-3.4988,2.568381,1.011406,4.337557,2.170348,5.526634,2.948836,0.167626
0,-2.150258,-1.917968,-2.302189,-1.075443,1.194727,-2.808206,-1.002617,0.520457,0.270587,0.638485,1.68191,5.683588,1.109345,0.157581
0,-1.341636,0.227896,0.137491,1.306478,4.406617,-2.35367,-0.040808,-1.489799,-1.632941,-2.508111,0.502878,3.709745,-1.098044,0.172648
0,0.21534,1.915456,-0.959925,0.78916,2.845875,0.603328,-0.379827,-2.412684,-2.416451,-0.995083,0.574449,0.063409,0.048342,0.112378
0,1.131946,2.146491,-2.337346,-0.589516,-0.647275,2.356181,-1.223607,-2.205506,-1.755992,1.443341,0.448886,-0.477765,1.591505,0.121168
0,1.980749,2.3047,1.34038,0.888355,-1.625407,1.000106,-2.049808,-2.052319,-1.28011,-0.481532,-1.411951,1.671865,-0.731402,0.445119
0,2.455375,2.788116,6.272476,3.714767,0.742702,-0.821807,-0.82934,-2.149003,-1.575182,-4.558547,-3.002828,0.746469,-4.356392,0.574449
0,1.201006,1.989538,5.052008,3.443552,3.025429,-0.414984,3.743647,-0.880821,-1.413206,-5.064564,-2.098778,-3.65073,-4.582404,-0.352203
0,-0.61714,-0.191483,-0.068432,0.279377,1.605317,1.008895,8.095644,1.708278,-0.330857,-2.141469,-0.103589,-5.289321,-2.346136,-1.610339
0,-0.244219,-1.233652,-0.99885,-1.297689,-2.341113,0.723868,6.955536,2.167837,0.057131,-0.386105,0.726379,-2.22434,-0.78916,-1.115623
0,1.536257,0.108612,1.924246,0.183949,-3.220051,-1.376793,0.914723,-1.253742,-1.251231,-0.6975,0.948625,0.261798,0.68871,1.233652
0,1.071676,1.588994,1.336613,1.458409,1.389349,-2.858431,-4.174326,-4.421684,-2.066131,0.088522,1.779849,-0.894633,3.149736,2.552058
0,-1.704511,0.805484,-3.413417,0.097311,5.488966,-1.929268,-5.141158,-2.688921,0.502878,2.96767,2.265776,-2.621118,4.3024,1.069165
0,-2.791883,-1.570159,-5.532913,-2.513134,1.855186,0.72889,-3.63943,1.949358,5.278021,5.363403,1.472221,-2.441563,2.894844,-1.051586
0,-1.025218,-3.404628,-2.889821,-3.997283,-6.490955,2.952603,-1.081721,4.179349,7.451508,5.078376,0.495344,-1.406928,1.403161,-1.266298
0,0.037041,-3.775037,-0.278121,-3.454853,-8.838974,3.215028,2.462909,3.477454,4.666531,2.273309,-0.20655,0.2957,0.736424,-0.612117
0,-1.335357,-2.705245,0.000628,-1.165848,-1.9029,1.753481,4.510834,3.08821,0.152558,-1.223607,-2.047297,3.427229,-1.375537,-1.175893
0,-2.06362,-0.421262,0.462698,1.497333,5.124834,-0.06592,1.776082,3.109556,-1.745947,-2.698966,-4.527157,5.529146,-4.051275,-1.928013
0,-0.07471,1.725857,1.815006,2.418962,4.106522,-1.177149,-3.752436,1.173382,-0.894633,-0.888355,-4.3024,3.521401,-2.975204,-0.698755
0,1.935546,1.830074,2.152769,1.295177,-0.706289,-1.40065,-6.084132,-1.588994,-0.190227,1.302711,-0.713823,-0.298211,1.012662,1.453386
0,1.414462,0.304489,1.974471,0.579471,-0.698755,-0.937324,-3.392072,-2.009628,-1.162081,-0.284399,2.154025,-1.316523,1.591505,1.783616
0,0.227896,-0.156325,2.893588,1.679399,3.521401,0.009417,0.232918,-1.089255,-3.14848,-4.616306,1.950614,0.087266,-2.120123,0.52799
0,0.774093,1.141991,2.932513,2.269543,4.465631,0.985038,1.629174,-2.058598,-5.109767,-6.182071,1.769804,0.590772,-3.392072,0.185205
0,1.616617,1.557603,-0.322068,0.173904,0.418751,1.221096,1.928013,-3.646964,-5.854353,-2.951347,3.86042,0.482788,0.514179,1.000106
0,0.63723,-0.039552,-4.033696,-2.410173,-2.864709,0.205295,2.368737,-2.298422,-4.022395,1.268809,4.810928,1.379304,3.965892,1.032752
0,-0.564404,-0.549336,-3.89181,-2.071154,-2.407661,-1.700744,1.851419,0.389872,-0.107356,3.373237,1.474732,0.88961,3.193683,0.119912
0,0.490322,2.171604,-1.108089,0.397405,-1.630429,-3.125879,0.240452,0.006906,3.035474,4.229574,-3.020407,-2.983993,1.433296,-0.133724
0,2.185416,4.775771,0.132468,1.535002,-2.524435,-2.538246,-0.075965,-2.205506,3.638174,4.203205,-4.232085,-5.756414,0.79795,0.062153
0,1.108089,3.215028,-0.441352,0.701267,-1.865231,-0.019462,2.044786,-1.246208,3.119601,1.629174,-3.159781,-2.700222,-1.391861,-0.996339
0,-1.998328,-0.678665,-0.242963,0.160092,1.879043,2.105056,3.996027,2.239408,3.058075,-2.406406,-2.889821,2.367481,-4.935235,-2.652508
0,-3.104533,-2.26452,0.942347,0.664854,4.491999,1.745947,2.776815,2.845875,2.611073,-3.767504,-2.46542,2.685155,-4.890032,-2.274565
0,-1.305222,-1.616617,1.64173,0.67741,2.677621,-0.07471,-0.791672,0.32709,0.99885,-1.816262,0.274354,-0.517945,-0.64853,0.173904
0,0.092288,-2.46542,1.974471,-0.404939,-0.707545,-0.609606,-3.164803,0.003139,-0.21534,-0.363504,3.147225,-1.165848,2.14398,1.738413
0,-0.687455,-4.926446,2.238152,-1.459664,-1.985771,0.560637,-2.823273,3.034218,0.337135,-0.461442,2.681388,0.784138,1.54128,1.168359
0,-1.529979,-5.272998,1.035263,-1.901644,-2.007117,1.312756,-1.860209,4.676576,1.442086,1.113112,0.193994,0.578215,1.875276,0.344669
0,-0.908445,-2.602283,-1.817518,-2.078688,-2.138958,0.951136,-2.137702,2.930001,1.459664,4.211995,-0.530502,-1.536257,3.905622,0.291933
0,-0.26682,0.060898,-3.42974,-1.626662,-0.5079,1.195983,-2.200483,0.931046,0.484044,3.57037,0.581982,-0.742702,2.298422,-0.348436
0,-0.16637,1.553836,-1.728368,0.117401,2.98776,2.358692,-0.499111,-0.193994,-1.141991,-2.047297,0.980015,3.100767,-3.657009,-1.663076
0,1.421996,3.655753,1.388094,2.210528,3.580415,2.061109,0.52799,-2.952603,-3.585438,-6.047719,0.624674,4.808417,-6.469609,-1.224862
0,4.396572,5.76897,2.779326,2.705245,-0.802972,-0.62844,-1.837608,-6.62154,-5.537935,-3.517634,1.184682,2.451608,-1.925501,1.586482
0,4.691644,4.512089,1.58146,1.252486,-4.341324,-3.109556,-4.372715,-6.37167,-4.765726,1.645497,1.870254,-0.342158,4.229574,3.520145
0,0.701267,0.162603,-0.895889,-0.417495,-1.909178,-3.215028,-1.788638,-1.297689,-1.792405,3.476198,0.599561,-1.011406,5.300622,2.086221
0,-2.87601,-2.234385,-2.513134,-0.7088,2.481743,-2.140213,3.783827,3.274043,0.371037,2.192949,-1.917968,-1.154547,2.166581,-0.726379
0,-1.959403,-0.421262,-1.717068,0.192738,2.636185,-1.528724,5.16627,3.521401,0.977504,1.190961,-3.145969,-2.22434,-0.875799,-1.809984
0,0.422518,1.693211,0.38736,0.943602,0.147536,-0.963692,2.287121,1.411951,2.025951,0.67741,-2.562103,-2.808206,-2.361203,-1.3002
0,-0.283143,0.795439,0.900911,0.75777,-0.023229,-0.328346,2.406406,-0.285655,3.459875,-0.900911,-1.484777,-1.445852,-2.597261,-0.96997
0,-2.26452,-0.82934,-0.177671,0.301978,1.254997,-0.897144,6.735802,-1.644241,2.644975,-2.874754,-0.495344,0.804228,-1.764781,-0.792927
0,-1.271321,-0.383594,0.517945,0.605839,0.473999,-1.750969,7.770437,-2.618606,-0.364759,-3.830285,0.369782,1.664331,-1.187194,0.003139
0,1.234907,0.241708,3.292877,1.134457,-0.944858,0.531757,2.719056,-1.650519,-1.92299,-3.97217,0.574449,0.163859,-1.960659,0.55687
0,0.983782,-1.36047,3.522657,0.263053,-0.247986,5.492733,-1.935546,0.926024,-0.399917,-3.063098,0.27561,-2.329813,-2.052319,-0.073454
0,-0.952392,-2.788116,-0.525479,-1.784871,0.309512,6.995716,-2.76677,2.396361,1.823796,0.362248,0.540547,-3.312967,0.499111,-0.79795
0,-0.56817,-0.840641,-4.034952,-2.563359,-1.543791,2.151514,-4.131635,1.989538,2.96767,5.183849,1.017684,-1.895366,2.82704,-0.560637
0,0.86952,1.92299,-3.722301,-1.36047,-2.196716,-2.776815,-7.07482,1.911689,3.80015,7.073565,0.256775,0.283143,1.496077,-0.481532
0,-0.745214,0.333369,-2.62614,-0.850686,0.813017,-1.227374,-6.725757,3.105789,4.136657,4.445541,-0.713823,1.955636,-0.651042,-1.247464
0,-3.467409,-4.812184,-2.391338,-2.412684,2.130168,3.149736,-4.210739,3.749925,2.177882,0.942347,0.830596,4.229574,0.924768,-0.839385
0,-1.68191,-6.964325,0.844408,-2.892333,-2.231874,2.126401,-6.398038,2.816995,-1.570159,-0.446375,3.775037,7.276976,3.472432,1.872765
0,3.373237,-3.08821,7.111234,0.317045,-5.786549,-3.855397,-10.626984,1.499844,-4.017373,-1.221096,3.522657,7.643619,1.241186,3.885532
0,4.633885,2.332324,8.538879,4.009839,-1.552581,-6.557503,-6.683065,0.02574,-4.150469,-2.71529,-0.258031,2.991527,-3.098255,2.484255
0,1.081721,4.420429,1.920479,3.862931,5.485199,-3.262742,3.051797,-3.423462,-4.355136,-2.82704,-2.066131,-2.794394,-1.488544,0.39615
0,-0.610862,4.631374,-4.124101,1.703256,6.421895,-0.329602,5.922156,-8.87162,-6.482165,-0.890866,0.313278,-4.468142,5.300622,1.484777
0,2.172859,6.765937,-2.870987,2.151514,2.643719,-1.881554,5.097211,-12.236696,-9.360058,-0.731402,1.395627,-3.536468,7.053475,3.33808
0,3.551536,9.252075,-0.504134,4.05253,1.064142,-3.161037,17.655974,-9.155391,-9.822128,-4.395316,-3.021662,-5.325734,-0.504134,0.313278
0,-0.514179,6.636607,-3.77127,2.26452,1.136969,0.76907,38.540789,-0.363504,-4.312445,-7.152669,-8.227484,-9.131535,-9.26212,-6.611495
0,-5.370937,-1.565137,-6.732035,-2.882288,-1.960659,6.092921,35.92281,8.160936,8.001472,-3.624362,-7.393749,-8.439685,-10.576759,-9.632529
0,-5.271743,-8.577804,-1.562626,-5.335779,-6.081621,5.825473,-1.307734,10.66842,20.80006,4.115312,-1.473476,-1.44083,-5.431207,-4.927701
0,-1.607828,-8.802561,6.158214,-2.986505,-5.254164,0.624674,-38.806981,6.93419,23.122967,9.026062,3.394583,5.664753,0.384849,2.146491
0,0.790416,-4.559803,6.053997,-0.406195,-0.383594,-2.136446,-41.1437,1.80245,11.183226,7.567025,4.780793,7.577071,4.013606,4.861153
0,0.897144,-1.583971,0.013184,-0.694989,2.764259,0.859475,-17.905844,-0.362248,-5.165014,2.269543,4.696666,6.057764,4.995505,3.158525
0,0.814273,-1.160826,-2.387571,-1.384327,2.736635,4.510834,-1.786127,0.291933,-12.727645,-2.174115,4.149214,4.890032,3.118345,1.111856
0,1.125668,-0.701267,-0.123679,-0.374804,1.676888,2.922468,-0.900911,1.020196,-9.311089,-2.77556,2.44533,4.116567,0.350947,0.530502
0,0.765304,0.382338,0.402428,0.442608,-0.098567,-2.596005,0.07471,0.581982,-3.250186,-0.133724,0.36727,2.289633,0.22664,0.545569
0,-0.152558,0.381082,-1.362981,-0.08601,-2.059853,-5.880721,6.21974,-0.294444,-1.504867,1.817518,-0.491577,0.093544,2.604795,0.715079
0,-0.221618,-0.234174,-0.374804,0.205295,-1.361726,-4.238363,8.272687,-1.085488,-3.496288,0.038297,-0.499111,-1.430785,3.265253,1.162081
0,1.046564,0.873287,3.034218,2.098778,1.484777,-1.015173,4.854875,-1.889088,-5.122323,-3.238885,-0.882077,-3.061842,0.590772,1.224862
0,2.331068,3.142202,3.586693,2.874754,1.479754,0.087266,4.391549,-2.520668,-3.957103,-3.654497,-1.301456,-4.984204,-1.9029,0.426285
0,1.833841,3.366959,0.900911,1.34038,-1.644241,-0.093544,7.904789,-2.8961,-0.646019,-1.812495,-1.165848,-4.930212,-1.709534,-0.448886
0,-0.559381,1.252486,-0.687455,0.107356,-1.614106,0.976249,8.605428,-3.279065,2.270798,-1.961914,-1.437063,-1.599039,-1.227374,-0.846919
0,-2.588471,0.160092,-0.593283,0.612117,2.444075,2.289633,5.752647,-2.999061,3.18866,-3.641941,-2.588471,2.167837,-2.761748,-1.443341
0,-2.013395,1.463431,-1.724601,0.691222,2.911167,0.727635,3.905622,-0.97876,3.294133,-1.724601,-2.882288,2.531968,-3.921945,-2.278332
0,0.300722,2.578426,-3.444808,-0.711312,-2.197972,-2.824529,2.115101,1.369259,3.930735,3.875487,-1.217329,-0.254264,-1.635452,-1.886577
0,1.427018,1.78236,-2.73538,-1.308989,-4.169304,-3.258975,-3.075654,1.041541,3.495033,6.421895,0.559381,-2.466676,2.248197,0.037041
0,0.4966,0.520457,-0.692477,-0.229152,0.908445,1.296433,-8.113222,-1.148269,0.646019,3.118345,0.632207,-1.951869,3.301667,1.213562
0,-0.619651,-0.482788,-0.521712,-0.060898,4.491999,5.704933,-7.671242,-0.26682,-1.368004,-0.210317,0.20655,-0.229152,0.937324,0.089777
0,-0.836874,-2.668831,-0.972482,-1.720834,1.075443,4.564826,-4.879987,4.88501,0.856964,0.879565,0.972482,0.465209,-1.234907,-1.388094
0,-0.993827,-5.328246,1.168359,-2.151514,-1.944336,-0.157581,-5.681076,8.360581,4.008584,2.455375,1.885321,0.244219,-1.072932,-0.792927
0,-1.115623,-4.815951,4.111545,0.118657,1.232396,-2.262009,-7.524334,5.38726,2.383805,-0.003139,1.345402,0.879565,-0.55687,0.81804
0,-0.030763,-0.785394,3.73988,1.880299,3.587949,-0.350947,-3.97217,-0.495344,-2.51439,-3.886788,0.522968,3.100767,-1.752225,0.957414
0,1.653031,1.66182,1.286388,0.676154,-1.342891,0.934813,3.206239,-3.3092,-4.371459,-4.788327,1.492311,5.441252,-2.773048,0.234174
0,1.732135,-0.502878,1.096789,-1.13948,-7.08361,-1.411951,6.266198,-3.075654,-2.575915,-3.242652,3.402117,5.625829,-0.317045,1.226118
0,0.240452,-3.179871,2.28461,-0.939835,-5.750136,-4.396572,3.523912,-2.990272,-1.86272,-1.234907,3.39835,2.781838,4.72429,3.39835
0,-0.544314,-1.664331,0.27561,-0.107356,-0.981271,-3.826518,0.993827,-2.564615,-2.722823,1.734646,0.639741,-1.547558,7.158947,3.156014
0,-0.253008,2.056086,-4.107778,-0.418751,0.834363,-0.122423,2.958881,0.055875,-1.438319,4.491999,-2.91619,-4.586171,3.869209,-0.423774
0,-0.590772,3.356914,-4.901333,-0.26682,1.772315,2.873498,6.881454,2.460398,1.131946,2.912423,-5.185104,-4.785816,-2.029718,-3.629385
0,-1.198494,2.598516,-0.839385,1.809984,4.892544,2.837085,7.637341,1.169615,0.465209,-2.415195,-5.446274,-3.095744,-5.102233,-3.310456
0,0.099822,3.204983,2.357436,3.466153,5.75767,0.678665,3.366959,-2.181649,-2.259498,-4.38276,-3.680865,-1.64173,-3.879254,-0.907189
0,2.523179,4.818462,1.109345,2.308467,1.257509,-1.406928,-2.843363,-3.721045,-1.371771,-0.217851,-0.506645,-1.371771,-1.140736,0.561892
0,2.563359,4.085177,-1.226118,0.111123,-2.471698,-1.832585,-5.935968,-3.556558,2.86722,3.382027,2.218062,-1.492311,0.581982,0.706289
0,-0.250497,0.738935,-1.050331,-0.438841,-0.293188,-0.301978,-4.268498,-3.464898,4.547247,1.365492,2.577171,-0.982527,1.125668,0.6975
0,-2.402639,-2.226851,-0.037041,-0.305745,2.644975,1.904156,-1.448364,-1.84263,2.543269,-1.499844,1.027729,0.190227,1.023962,0.431307
0,-1.966937,-3.526423,-0.610862,-1.523701,0.5079,2.604795,-1.291411,2.800672,1.327824,0.059642,0.25552,1.449619,0.426285,-0.510412
0,-0.705034,-4.196927,-0.927279,-2.78686,-3.109556,0.845664,-2.86722,6.684321,1.80245,2.460398,1.68191,2.357436,-0.294444,-0.944858
0,0.021973,-4.185627,1.379304,-1.772315,-2.981482,-1.668098,-3.071887,5.845563,0.686199,0.68871,3.272787,2.653764,-0.890866,0.023229
0,0.967459,-2.575915,4.058809,0.261798,-1.678143,-2.196716,-1.604061,3.210006,-1.503611,-2.241919,2.253219,2.223084,-1.921734,0.74898
0,1.925501,-0.531757,3.44983,0.44763,-2.966415,-0.268076,0.055875,3.466153,-1.194727,-1.445852,-0.702522,1.428274,-3.272787,-0.391127
0,1.21984,-0.089777,0.457675,-0.721357,-3.674587,1.545047,1.994561,4.135402,0.296955,0.615884,-2.218062,0.946114,-2.873498,-1.634196
0,-0.93858,-0.662342,-1.149525,-0.521712,-0.19525,0.96997,4.357647,-0.142513,-1.232396,-0.676154,-1.140736,1.069165,0.619651,-0.358481
0,-2.279588,-0.260542,-0.835619,0.95867,3.854142,-0.661087,5.009317,-6.861364,-3.974682,-3.140947,-0.001883,1.442086,4.599983,2.151514
0,-2.039763,0.814273,-1.188449,1.13948,3.85163,-0.22664,2.506856,-8.129546,-2.584705,-2.082454,-0.679921,1.345402,4.994249,2.280843
0,-1.350425,1.012662,-2.511878,-0.196505,1.879043,2.079943,-0.804228,-3.002828,1.582716,1.080466,-1.514912,0.030763,1.82254,-0.109867
0,-0.39615,1.03903,-2.246941,-0.431307,1.773571,2.249453,-1.948103,1.246208,2.182904,2.025951,-0.6975,-2.555825,-0.794183,-1.448364
0,1.374282,2.531968,-0.035785,1.227374,2.225596,-1.502356,-1.256253,0.490322,-1.089255,1.302711,0.33588,-4.957836,-0.438841,-0.211573
0,2.84713,4.316212,1.198494,2.339858,0.563148,-5.156225,-0.638485,-1.587738,-2.501833,1.906667,-0.258031,-5.107256,0.943602,1.134457
0,2.584705,3.792616,0.40745,1.347914,-1.917968,-4.391549,-0.571937,-1.354192,-0.551847,2.810717,-1.023962,-2.834574,0.921001,0.782882
0,1.631685,1.253742,0.325835,-0.151303,-3.156014,-0.956159,-0.892122,-0.319557,0.816784,1.366748,0.234174,-0.303233,-0.093544,0.244219
0,1.526212,-0.814273,2.314745,-0.460187,-3.717279,0.663598,-1.684421,-0.299467,0.620907,-1.177149,2.240663,0.884588,-0.848175,0.750236
0,0.968715,-1.831329,3.346869,-0.312023,-3.321757,0.629696,-1.944336,0.16637,1.674376,-2.179138,2.317256,1.469709,-1.688188,0.703778
0,-1.640474,-2.884799,1.01894,-0.782882,0.249242,2.220573,-0.455164,1.968193,3.444808,-2.295911,0.883332,2.336091,-2.994038,-1.067909
0,-4.06132,-3.385793,-2.025951,-1.094277,5.397305,4.554781,1.492311,3.159781,2.359948,-2.845875,0.030763,2.555825,-3.487499,-2.648741
0,-3.074398,-1.94308,-2.194205,-0.422518,6.051486,3.597994,1.875276,2.930001,-0.814273,-2.180393,-0.61714,1.389349,-2.375015,-2.22434
0,-0.092288,0.075965,-0.571937,0.058387,0.581982,0.096055,2.002094,3.267765,-1.498589,0.642252,-2.407661,0.25552,-1.185938,-1.222351
0,0.712567,-0.124935,-0.468976,-0.870776,-4.524646,-0.861987,3.958359,4.326257,0.776604,2.490533,-3.592972,0.620907,-1.055353,-1.384327
0,-0.97876,-1.988283,-1.557603,-1.907923,-3.728579,1.080466,5.008061,2.67511,1.64173,0.957414,-1.514912,1.715812,-0.19525,-1.206028
0,-1.528724,-1.999583,-0.946114,-0.97876,0.180182,0.759025,0.913467,-2.80695,-0.814273,-1.227374,2.082454,2.190438,2.913678,1.261276
0,0.52799,0.761537,1.293922,1.256253,1.612851,-2.7065,-5.678565,-7.229262,-3.667054,-0.750236,2.845875,2.032229,5.65722,4.044997
0,2.568381,3.050542,2.215551,2.128913,0.158837,-3.692166,-7.479132,-5.816684,-4.055042,1.054097,0.54808,1.091766,4.525901,3.6997
0,2.380038,2.406406,1.045308,0.936069,-0.997594,-0.426285,-3.51889,-0.957414,-1.993305,1.536257,-0.76907,-1.632941,1.061631,0.931046
0,0.94988,0.615884,-0.119912,-0.242963,-0.672387,1.080466,-0.303233,1.129435,1.109345,1.457153,0.595794,-5.152458,-0.038297,-0.408706
0,0.112378,0.575704,-0.383594,0.073454,0.163859,-2.416451,-1.064142,-0.703778,3.295388,2.300933,1.94308,-5.87821,1.483521,0.499111
0,0.08601,1.774826,-0.64853,0.813017,0.860731,-5.207706,-1.527468,-1.590249,2.779326,2.319768,1.268809,-2.5056,0.956159,0.619651
0,0.089777,1.153292,-0.471487,0.47651,0.725124,-2.255731,1.754736,1.370515,0.482788,-0.418751,0.015695,1.374282,-3.055564,-1.241186
0,-0.323323,-2.044786,1.261276,-0.627185,-1.130691,2.570893,5.933457,4.650208,-0.373549,-3.717279,-0.322068,2.097522,-5.583138,-2.39385
0,-0.953647,-4.371459,2.680132,-1.216073,-3.198705,3.826518,7.125045,3.726068,0.751492,-4.047508,-0.56817,0.473999,-3.017895,-1.211051
0,-1.15957,-2.334835,0.845664,-0.721357,-1.761014,3.045519,5.211473,-0.401172,0.56817,-1.841374,-1.487288,-0.865754,0.867009,0.037041
0,-0.515434,2.547036,-2.521923,0.603328,3.668309,3.571626,1.386838,-3.06812,-2.089988,-0.38736,-2.110078,-1.213562,0.750236,-0.619651
0,0.460187,5.143669,-2.612328,2.012139,7.717701,3.246419,-3.682121,-2.361203,-3.561581,-0.600817,-1.72209,-0.44763,-2.147747,-1.445852
0,0.92979,3.356914,0.502878,2.262009,5.251653,-0.634719,-7.56577,-0.423774,-1.447108,-0.162603,-1.082977,2.095011,-2.658786,-0.423774
0,0.944858,0.460187,1.491055,0.63723,-1.523701,-4.387782,-6.984415,0.630952,1.144502,2.175371,-0.647275,4.788327,0.19525,1.075443
0,0.851942,-0.566915,-1.170871,-1.602806,-5.512823,-3.15727,-2.612328,0.811762,0.895889,3.955847,0.296955,4.085177,2.716545,1.007639
0,0.02574,-1.487288,-2.354925,-2.356181,-3.808939,0.983782,1.175893,0.519201,-0.345925,2.142724,1.801194,0.511667,2.843363,0.349692
0,-1.920479,-4.48321,0.730146,-1.547558,-0.706289,2.63493,2.231874,-0.102333,0.65732,-2.126401,2.462909,-0.707545,2.035996,0.839385
0,-3.27781,-6.769703,3.39835,-0.992572,-0.73768,1.290155,2.417706,0.07471,2.906145,-4.129124,1.445852,1.875276,1.189705,1.307734
0,-2.091244,-4.419173,1.540024,-1.214817,-2.446586,0.08601,3.328035,2.091244,3.290366,-1.732135,-0.124935,2.579682,-0.6975,-0.187716
0,0.499111,0.517945,-1.437063,-0.846919,-2.013395,-0.451397,4.120334,4.321234,1.816262,1.560114,-0.599561,-2.096266,-3.089466,-2.300933
0,1.580204,2.455375,-1.046564,0.310767,-0.108612,-1.975726,3.623107,3.744902,0.931046,2.034741,0.381082,-6.838763,-3.040497,-2.051064
0,0.919745,1.037774,0.484044,0.642252,-0.202783,-4.13289,1.278854,0.097311,0.956159,1.479754,1.897878,-5.671031,0.686199,0.524224
0,1.060376,1.477243,-0.85822,0.127446,-1.401906,-5.077121,-3.140947,-3.874232,-0.521712,3.21754,2.601028,-1.376793,5.122323,2.643719
0,2.754214,5.553003,-2.868476,1.03903,0.859475,-3.968404,-7.579582,-6.125568,-4.625096,4.892544,1.391861,-0.332113,6.173281,2.837085
0,3.495033,8.127034,-1.076699,3.567859,6.272476,-0.383594,-7.461553,-6.43194,-8.428384,1.493566,-1.580204,-2.176626,2.818251,1.764781
0,1.496077,4.805906,2.830807,4.276032,8.245063,5.372193,-1.502356,-4.34258,-7.446485,-5.373448,-4.317467,-1.538769,-2.479232,-0.02574
0,-1.5011,-1.60155,3.798894,1.371771,3.549025,9.511989,4.545991,0.151303,-1.120646,-8.410806,-4.505811,2.621118,-6.278754,-2.133935
0,-2.717801,-5.191383,1.969448,-1.833841,-2.536991,7.209172,4.692899,4.085177,5.324479,-5.239096,-2.186671,5.86942,-6.508533,-2.93628
0,-1.84263,-4.328768,1.190961,-1.874021,-4.168048,0.08601,1.047819,3.963381,6.49221,-0.980015,0.137491,5.236585,-3.57037,-1.389349
0,-0.785394,-2.022184,1.090511,-0.463954,-2.575915,-4.15298,0.04583,1.144502,3.527679,0.713823,0.718845,2.254475,0.008162,0.497855
0,-0.894633,-1.016429,-1.604061,-1.091766,-1.818773,-2.28461,2.401383,0.46772,1.868998,1.88281,0.581982,-0.229152,1.659309,0.077221
0,-1.403161,-1.262531,-5.035685,-2.9074,-2.157792,0.147536,2.978971,2.903633,2.71529,3.847864,1.285132,-0.711312,1.178404,-1.577693
0,-0.692477,-1.439574,-3.734857,-2.466676,-1.987027,-1.704511,-0.250497,4.127868,1.815006,3.984727,2.161559,0.555614,0.722612,-1.093022
0,1.175893,-0.903422,1.529979,0.098567,-1.630429,-4.52339,-3.374493,1.607828,-2.254475,1.488544,1.758503,1.487288,1.885321,1.653031
0,1.982004,-0.009417,3.412162,1.298944,-1.091766,-3.312967,-3.065609,-1.498589,-4.648952,-0.180182,0.885844,-0.070943,3.33808,2.961392
0,0.301978,0.525479,-0.764048,0.044575,1.301456,0.309512,-0.698755,-1.516167,-1.911689,0.711312,1.428274,-3.199961,2.564615,0.904678
0,-1.936802,0.369782,-4.58366,-1.089255,4.387782,1.68191,0.971226,0.482788,2.312234,1.42074,2.584705,-4.646441,-0.200272,-1.755992
0,-1.709534,-0.033274,-2.303444,-0.33588,3.723557,0.764048,1.169615,0.931046,2.886055,0.052108,1.595272,-3.383282,-1.712045,-1.644241
0,0.845664,0.259287,2.999061,1.147014,-0.814273,0.823062,0.298211,-1.32029,0.043319,-1.622896,-1.516167,-1.512401,-0.334624,0.706289
0,2.801928,1.776082,4.874965,1.935546,-3.231352,2.189183,-1.005128,-4.208228,-2.75547,-2.066131,-3.501311,-0.289422,1.306478,2.171604
0,2.701478,3.673332,2.460398,2.017162,-1.008895,2.206761,-1.458409,-4.928957,-3.73988,-1.738413,-3.00785,1.07921,0.398661,1.345402
0,1.644241,3.903111,-0.231663,1.464687,0.687455,0.099822,-0.276865,-2.440308,-2.68641,-0.590772,-2.205506,2.380038,-1.48101,-0.268076
0,0.409962,1.339124,-0.907189,0.101078,-1.211051,-1.709534,1.287644,1.100556,0.140002,1.266298,-2.030974,2.201739,-1.160826,-0.825574
0,-1.236163,-2.041019,-0.703778,-1.150781,-1.772315,-0.985038,1.560114,1.948103,2.417706,1.190961,-0.371037,1.035263,0.468976,-0.360992
0,-2.336091,-2.693944,-0.743958,-0.884588,2.383805,1.42074,0.867009,-0.4966,1.276343,-2.174115,2.869731,0.610862,0.00565,-0.103589
0,-1.321546,-0.182693,-0.443864,0.560637,5.712467,2.191694,0.317045,-2.140213,-1.786127,-4.533435,3.762481,0.539291,-2.235641,-0.441352
0,0.840641,1.676888,0.867009,1.374282,2.765515,-0.751492,-0.494089,0.205295,-2.082454,-1.752225,0.713823,-0.269332,-2.609817,-0.481532
0,1.432041,-0.011928,2.569637,0.816784,-2.569637,-4.886266,-2.1038,3.875487,0.928535,2.504345,-1.979493,-0.294444,-0.584494,0.301978
0,0.048342,-3.081932,3.147225,-0.22664,-3.866698,-5.196405,-2.879776,4.460609,2.977715,2.331068,-0.887099,1.619129,0.603328,0.951136
0,-1.364237,-3.846608,1.332846,-1.124412,-1.781104,-0.820551,-0.996339,2.575915,2.638696,-0.200272,0.993827,2.267031,0.052108,0.271843
0,-2.167837,-2.503089,-2.607306,-2.108823,-0.293188,3.325523,2.275821,2.054831,3.019151,0.948625,0.078477,-0.995083,0.349692,-1.378049
0,-3.025429,-1.536257,-6.398038,-3.011617,0.500367,3.67082,3.954592,3.06812,4.384016,4.420429,-1.21984,-4.097733,1.82254,-2.533224
0,-2.810717,-0.702522,-7.41635,-2.978971,1.568904,2.791883,3.24893,2.113845,2.651253,3.945802,0.561892,-2.113845,1.568904,-2.430263
0,0.082243,1.928013,-5.143669,-1.680654,0.863242,3.692166,1.595272,-1.703256,-2.396361,0.00565,2.844619,1.777338,-0.489066,-1.375537
0,3.635663,4.913889,-1.17966,0.24673,-2.04353,3.842841,-0.37606,-5.118556,-5.133624,-1.388094,1.498589,1.46092,-0.653553,0.293188
0,4.120334,4.417917,2.994038,2.015906,-3.070632,0.038297,-3.010362,-5.659731,-3.436018,-0.17516,-1.278854,-1.126924,1.794916,2.377526
0,2.034741,0.521712,6.778493,3.164803,-0.553103,-4.739357,-5.180082,-4.312445,-2.3047,-1.737158,-0.752747,0.0948,2.8961,4.088944
0,1.248719,-2.042274,8.950725,3.43853,1.192216,-5.377215,-4.650208,-2.820762,-4.475676,-5.550491,1.562626,3.274043,0.951136,4.298633
0,2.229363,-0.669876,7.573304,2.857175,-0.219107,-2.621118,-1.321546,-1.388094,-5.100978,-5.205194,0.512923,1.529979,-0.867009,2.690177
0,1.453386,1.542536,2.73538,1.72209,-0.7088,-1.011406,2.235641,0.413729,-0.482788,-0.156325,-3.193683,-3.9006,-0.747725,0.101078
0,-1.857698,0.821807,-2.181649,0.303233,2.189183,-1.351681,3.92069,2.482999,4.879987,2.893588,-3.817729,-5.237841,-0.923512,-2.122634
0,-3.842841,-1.777338,-3.898089,-1.103067,4.039974,-1.061631,3.84033,4.098989,5.353358,1.488544,-0.250497,-1.871509,-2.138958,-2.87601
0,-2.249453,-2.36497,-3.140947,-1.935546,1.374282,0.241708,2.636185,4.098989,2.572148,0.590772,2.467931,-0.312023,-1.860209,-2.117612
0,0.152558,0.02574,-3.163548,-1.941824,-1.997072,1.062887,0.265565,2.074921,1.483521,2.692688,1.524957,-0.904678,-0.055875,-1.218584
0,0.170137,2.135191,-4.710478,-1.72209,-1.64173,1.781104,-2.647486,-0.191483,2.567126,3.767504,-0.290677,2.427751,-0.172648,-1.472221
0,-1.583971,0.884588,-4.890032,-1.757248,0.772837,3.125879,-4.060064,-0.458931,2.838341,1.208539,-0.360992,8.553947,-2.210528,-2.062364
0,-2.584705,-2.408917,-1.763526,-1.351681,1.836352,3.374493,-2.680132,0.423774,1.144502,-1.936802,0.236685,8.533857,-1.767293,-1.05912
0,-1.563881,-3.382027,2.371248,0.162603,1.586482,1.567648,0.055875,-0.455164,-1.447108,-2.838341,0.150047,0.815529,1.684421,1.293922
0,0.993827,-0.379827,3.969659,1.717068,0.875799,0.383594,1.665587,-2.849641,-3.775037,-2.524435,0.044575,-5.482688,2.957625,2.402639
0,3.161037,2.730357,2.783093,1.644241,-0.855709,1.493566,1.806217,-2.879776,-4.499533,-2.032229,0.317045,-5.167526,0.308256,1.192216
0,2.677621,1.493566,1.258764,0.14628,-2.685155,1.866487,2.142724,0.774093,-2.769281,-0.580727,0.200272,-3.078165,-1.203517,-0.242963
0,0.052108,-2.482999,0.643508,-1.041541,-2.603539,-0.767815,3.024173,4.086432,-0.446375,1.336613,-0.053364,-2.893588,1.175893,-0.030763
0,-0.982527,-3.441041,0.156325,-1.160826,-1.885321,-3.311712,2.282099,3.312967,-0.317045,1.941824,0.816784,-1.469709,3.164803,0.890866
0,1.149525,-0.087266,-0.564404,-0.874543,-3.115834,-2.986505,-1.385582,-0.015695,-1.305222,1.654286,2.470443,2.275821,1.704511,1.07921
0,2.590983,2.400128,-0.687455,-0.53678,-4.120334,-2.543269,-5.357125,-2.131424,0.280632,2.179138,2.923723,3.695933,0.296955,1.006384
0,0.067176,0.759025,0.092288,0.293188,-0.874543,-4.407872,-5.551747,-2.12389,4.057553,2.535735,1.242441,1.167104,1.459664,1.283877
0,-2.98776,-0.995083,1.057864,1.658053,4.332535,-4.962859,-1.685677,-1.533746,5.16627,0.533013,-1.685677,-0.985038,1.267554,0.821807
0,-1.630429,1.648008,1.631685,2.859686,5.644663,-0.87831,2.169093,-1.234907,1.80245,-2.555825,-4.449308,-0.932302,-3.040497,-1.034007
0,2.08371,5.812917,1.421996,3.133413,3.393327,4.008584,2.714034,-1.147014,-1.912945,-3.263998,-5.521612,-1.619129,-6.56127,-2.540758
0,2.241919,5.411117,-0.209062,1.987027,2.593494,4.641419,1.049075,-1.371771,-2.363715,-1.376793,-3.660775,-2.906145,-4.058809,-1.976982
0,-1.249975,0.432563,-2.647486,-0.36727,3.210006,2.769281,0.217851,-1.777338,-0.988805,-0.048342,0.244219,-0.850686,1.38056,-0.323323
0,-3.06812,-3.613062,-3.231352,-2.37376,1.226118,2.518156,1.022707,-1.578949,-0.471487,-0.946114,3.182382,3.605528,3.20875,0.51669
0,-1.52119,-4.087688,-0.592027,-2.348647,-2.169093,2.868476,1.890344,-0.441352,-0.689966,-2.597261,3.554047,4.607517,1.010151,0.515434
0,-0.119912,-3.319245,2.243174,-0.967459,-2.331068,1.194727,1.562626,1.023962,-0.571937,-2.901122,2.832063,1.38056,-0.604584,0.578215
0,-0.366015,-2.845875,1.409439,-0.662342,-0.640997,-0.580727,0.191483,2.376271,-0.304489,-0.815529,2.287121,-0.686199,0.20655,0.431307
0,0.084755,-1.437063,-1.96317,-1.861464,-2.128913,-0.147536,-1.408184,3.934502,0.000628,3.199961,0.885844,0.224129,1.124412,-0.510412
0,1.604061,0.490322,-3.204983,-2.318512,-5.171293,-0.151303,-2.105056,5.981171,0.801717,6.430685,-1.616617,0.408706,0.399917,-1.548814
0,1.470965,0.092288,-0.917234,-1.042797,-3.939524,-2.691433,-0.99885,7.862097,1.324057,5.576859,-2.683899,-1.141991,-1.195983,-1.714556
0,-0.431307,-2.528201,1.708278,0.101078,0.289422,-3.778804,1.035263,7.583349,0.391127,1.104322,-0.802972,-1.439574,-2.131424,-1.101811
0,-0.82934,-2.962648,2.250708,0.047086,1.042797,-0.412473,1.434552,2.579682,-0.692477,-2.451608,1.609084,-0.555614,-1.131946,0.073454
0,0.910956,1.055353,1.620384,0.53678,-1.204772,2.397616,-0.860731,-7.067287,0.232918,-2.361203,1.881554,-1.424507,2.167837,2.115101
0,1.543791,5.767715,0.996339,2.596005,0.181438,-0.446375,-3.468665,-15.835318,1.846397,-0.992572,0.823062,-2.87601,5.625829,4.237107
0,-0.079732,6.56127,0.193994,4.09271,5.265464,-4.660253,-3.515123,-16.326267,1.084232,-1.212306,0.082243,-1.243697,5.531657,4.224551
0,-1.125668,3.743647,-0.433819,3.015384,6.517323,-3.551536,-1.155803,-7.451508,-1.013917,-1.845141,-1.035263,1.881554,1.110601,1.344147
0,-0.225385,0.550592,-0.136235,0.506645,1.498589,0.804228,1.663076,3.546513,-0.550592,-0.646019,-2.972693,1.82254,-3.777549,-2.084966
0,0.300722,-1.568904,-0.011928,-1.352936,-3.143458,2.456631,4.19316,9.066242,1.821284,1.077954,-3.394583,-0.539291,-5.311923,-3.594227
0,-0.747725,-2.729101,-1.438319,-2.147747,-2.135191,2.493044,6.023862,8.400761,0.961181,0.402428,-0.946114,-0.613373,-4.145447,-3.379515
0,-1.118134,-2.283354,-2.568381,-1.899133,1.787383,4.922679,5.069587,5.321968,-3.855397,-2.221829,1.425762,1.198494,-3.090722,-2.687666
0,0.587005,-0.058387,-0.579471,-0.225385,3.325523,6.290055,0.14628,2.030974,-6.565037,-3.21754,0.86952,1.003872,-2.31349,-1.291411
0,2.369993,1.74218,2.932513,1.66182,0.76907,0.853197,-5.419906,-1.226118,-3.526423,-0.814273,-0.401172,-0.442608,0.17516,1.325312
0,2.307211,0.882077,3.565348,1.258764,-3.964637,-6.94298,-6.723245,-3.25772,0.934813,2.590983,1.131946,0.4966,4.023651,3.695933
0,1.065398,-1.671865,0.94988,-1.275087,-6.965581,-7.194105,-3.59046,-2.613584,1.817518,3.457364,3.967148,2.611073,5.770226,3.672076
0,-0.413729,-3.265253,-1.060376,-2.648741,-4.779537,-0.357225,-0.191483,-0.091033,0.833107,1.316523,3.785082,2.071154,3.442297,1.357959
0,-2.369993,-3.253953,-1.030241,-1.484777,1.135713,3.466153,1.384327,2.210528,2.027207,-0.888355,0.386105,-0.037041,-0.451397,-1.096789
0,-4.171815,-2.888566,-1.362981,-0.319557,4.645186,0.923512,2.732868,3.526423,4.617562,-0.629696,-2.295911,-0.268076,-2.229363,-2.279588
0,-3.973426,-2.470443,-2.6952,-0.91849,2.886055,-0.839385,4.037463,4.071365,5.251653,1.124412,-2.243174,-0.023229,-1.720834,-2.488021
0,-1.689444,-1.020196,-2.572148,-1.36047,0.323323,1.884066,2.506856,3.328035,4.006072,1.833841,-1.203517,-2.451608,-1.350425,-2.234385
0,0.38736,1.487288,-0.700011,0.068432,1.283877,3.496288,-2.115101,0.833107,3.139691,1.334102,-0.84943,-5.295599,-1.636707,-1.433296
0,0.954903,3.562837,0.001883,1.650519,3.113323,0.492833,-4.975415,-2.26452,2.272054,1.314012,-0.760281,-4.365181,-0.795439,-0.202783
0,1.332846,4.168048,-0.976249,1.444597,1.276343,-2.190438,-2.312234,-4.446797,-0.62844,1.396883,-0.254264,-0.95867,1.272576,0.875799
0,2.917445,4.004817,-0.319557,0.764048,-3.034218,-1.110601,2.719056,-6.035163,-5.230307,-0.590772,0.579471,1.213562,2.323535,1.798683
0,4.982949,4.307422,3.186149,1.752225,-5.121068,-0.879565,3.942035,-8.177259,-9.417817,-4.077643,1.528724,2.736635,1.946847,3.291622
0,5.62834,4.775771,5.982426,3.634407,-3.252697,-4.60375,0.372293,-9.662664,-11.898933,-5.517845,1.984516,5.255419,2.294655,5.008061
0,3.624362,3.412162,4.917656,3.781315,0.772837,-6.243596,-2.750447,-6.819928,-11.27112,-3.761225,0.844408,5.84933,3.034218,4.611284
0,-0.598305,-0.915979,1.21984,1.223607,4.352625,-0.0948,-1.023962,1.929268,-5.323223,-1.592761,-1.568904,1.713301,0.344669,0.337135
0,-4.730568,-6.095433,-2.131424,-2.46542,4.879987,8.462286,3.597994,12.200283,4.990483,-0.622162,-2.894844,-3.520145,-6.065298,-5.606995
0,-6.13059,-8.413317,-3.705978,-4.886266,1.414462,9.807061,5.432463,16.514611,13.560125,0.968715,-1.816262,-4.756936,-9.73549,-8.252597
0,-4.657742,-6.872665,-3.399605,-4.726801,-2.859686,3.503822,1.961914,11.885121,15.011628,3.890555,0.052108,-2.754214,-5.642152,-5.393538
0,-2.641208,-3.937013,-1.88281,-2.710267,-3.69091,-2.798161,-3.589205,2.924979,10.471287,5.506544,1.046564,-0.843152,2.294655,-0.15507
0,-1.246208,-1.42074,-0.693733,-0.721357,-1.702,-4.974159,-6.640374,-3.770015,4.360159,4.330024,1.739669,0.92979,6.684321,3.124623
0,0.731402,1.52119,-0.522968,0.4966,-0.7088,-5.267976,-6.276243,-6.318934,-1.334102,2.464165,2.446586,2.957625,6.129335,3.67961
0,3.262742,4.88501,-0.077221,1.733391,-0.767815,-5.028151,-4.34258,-6.73329,-5.98996,1.388094,1.606572,2.641208,4.18186,3.240141
0,3.675843,5.825473,1.162081,2.852153,1.046564,-2.292144,-1.508634,-6.042696,-7.474109,-0.393639,-0.762792,-0.720101,2.326046,2.305956
0,1.123157,2.995294,1.126924,2.195461,3.682121,2.618606,2.499322,-3.861675,-5.183849,-3.271532,-1.427018,-2.741658,-0.176415,0.421262
0,-1.023962,-0.290677,-0.956159,-0.170137,3.064353,5.377215,5.733813,-1.208539,-2.790627,-4.545991,0.942347,-0.707545,-2.126401,-1.296433
0,-0.22664,-0.674899,-1.910434,-1.388094,-0.209062,3.569115,5.411117,0.372293,-3.005339,-2.917445,2.504345,1.685677,-1.929268,-1.281366
0,1.174637,0.299467,0.34718,-0.11489,-1.469709,0.118657,2.754214,1.675632,-2.906145,-0.875799,0.088522,0.802972,-1.398139,-0.497855
0,0.360992,-0.33588,2.53448,1.060376,-0.236685,-1.037774,2.009628,3.894322,0.522968,-0.455164,-3.184893,-1.287644,-2.804439,-1.03903
0,-0.97876,-1.475987,1.414462,0.108612,-0.342158,0.393639,3.757459,4.901333,3.910645,-0.603328,-2.889821,-1.699489,-4.227062,-2.269543
0,-0.117401,-0.34718,-0.320812,-0.782882,-1.901644,2.162814,3.846608,1.899133,2.670087,-0.460187,-0.6975,-1.483521,-2.736635,-1.733391
0,1.478499,1.995816,0.845664,0.615884,-1.184682,2.588471,0.279377,-3.020407,-0.733913,-0.791672,-1.000106,-1.719579,0.21534,0.431307
0,0.943602,2.32479,2.171604,2.010884,1.345402,1.288899,-3.695933,-4.756936,-0.640997,-0.733913,-2.643719,-0.745214,1.568904,1.562626
0,-0.689966,0.630952,-0.587005,0.363504,1.131946,-1.164592,-5.167526,-2.368737,2.253219,1.899133,-0.831852,1.487288,2.087477,0.952392
0,-0.723868,-0.705034,-4.520879,-2.450353,-1.759759,-3.437274,-5.437485,0.23543,2.578426,5.482688,3.893066,2.260753,3.872976,0.712567
0,0.1061,-1.512401,-3.266509,-2.390083,-2.309723,-4.671554,-6.141891,0.652297,-0.161348,5.172548,5.669776,1.72209,5.254164,1.877788
0,-0.43633,-3.030452,2.56587,0.281888,0.216595,-5.510311,-6.105478,0.451397,-1.261276,0.656064,2.692688,3.004083,3.575393,2.899866
0,-1.271321,-3.95208,5.982426,1.797428,0.990061,-6.213461,-4.235852,1.124412,0.560637,-2.398872,-0.205295,4.950303,0.413729,2.456631
0,-0.187716,-2.010884,3.648219,0.875799,-0.993827,-4.529668,-1.26002,1.880299,1.546302,-1.071676,0.108612,2.444075,-1.268809,0.81804
0,1.093022,1.405672,-1.105578,-0.384849,-0.639741,1.607828,2.87601,2.010884,0.216595,0.479021,0.442608,-3.96087,-2.359948,-1.68191
0,-0.501622,2.621118,-4.474421,-0.720101,3.678354,9.292255,8.440941,1.958148,-0.486555,-1.368004,-2.166581,-7.059753,-4.647697,-4.566081
0,-3.186149,1.216073,-5.486454,-0.899655,6.120545,12.113644,11.881354,1.620384,0.574449,-3.581671,-4.729312,-4.137913,-5.761436,-5.746369
0,-2.380038,0.183949,-3.909389,-1.116879,2.538246,7.720212,8.556458,0.357225,0.46772,-2.3047,-3.145969,-0.684944,-2.886055,-3.394583
0,1.572671,0.859475,-0.314534,-0.575704,-2.844619,0.990061,0.914723,-1.427018,-2.076176,0.307,1.030241,-0.404939,1.314012,0.654809
0,3.447319,1.399394,2.349903,0.40745,-3.99226,-2.105056,-3.034218,-2.681388,-3.796383,0.216595,2.991527,-0.212828,2.400128,2.611073
0,1.173382,0.366015,1.767293,0.554359,-1.424507,-1.364237,-1.277599,-2.913678,-1.965681,-1.3002,1.56137,1.793661,1.254997,1.773571
0,-1.442086,-1.267554,-0.075965,-0.187716,0.073454,-0.946114,-0.232918,-1.668098,1.532491,-0.109867,-0.284399,2.147747,1.665587,0.796694
0,-1.056609,-1.982004,0.089777,-0.598305,-1.290155,-3.058075,-3.231352,1.042797,3.159781,3.348125,-0.504134,-0.38736,3.310456,1.155803
0,0.875799,-1.306478,1.879043,-0.018207,-3.026685,-5.736324,-5.077121,2.67511,1.865231,4.356392,-0.01444,-1.266298,3.046775,1.747203
0,1.744691,0.575704,2.830807,1.216073,-2.470443,-6.149425,-2.14398,0.023229,-1.116879,1.008895,0.032018,1.674376,0.967459,1.809984
0,1.735902,2.992783,2.629907,2.54578,0.500367,-3.813962,0.479021,-5.094699,-4.013606,-3.153503,-0.050853,3.906878,-0.463954,1.799939
0,1.951869,4.478187,2.160303,3.156014,3.777549,-0.5079,-2.390083,-6.337768,-4.719267,-3.901855,0.131213,2.105056,-1.263787,1.361726
0,1.610339,3.541491,0.811762,2.010884,4.577382,1.600294,-7.082354,-1.406928,-1.56137,-0.892122,0.202783,-0.489066,-2.613584,-0.310767
0,-0.412473,0.049597,-1.76227,-0.806739,1.850164,1.705767,-6.821184,4.569848,4.292355,2.928746,0.093544,-0.546825,-2.962648,-2.177882
0,-3.063098,-4.308678,-3.653242,-3.523912,-2.067387,1.020196,-1.3002,6.694366,8.459775,4.562314,0.389872,-0.05462,-0.686199,-2.472954
0,-4.136657,-6.772215,-3.439785,-4.36267,-3.522657,1.438319,4.743124,5.947269,7.17527,3.090722,1.075443,-1.277599,1.708278,-1.668098
0,-2.966415,-5.426184,-2.331068,-3.171082,-1.763526,3.104533,8.137079,4.340069,1.350425,-0.122423,1.152036,-2.246941,1.272576,-1.330335
0,-0.807995,-1.376793,-1.308989,-0.95867,0.561892,4.098989,8.12829,0.736424,-4.272265,-2.773048,0.080988,-1.189705,0.004395,-0.923512
0,0.736424,1.769804,0.475254,1.164592,1.518679,3.144713,4.832274,-4.348858,-6.107989,-3.59925,-1.203517,-0.268076,1.104322,0.782882
0,0.966204,2.002094,2.383805,2.236896,2.215551,1.437063,0.646019,-6.067809,-4.789582,-3.102022,-1.34038,-1.28011,2.500578,2.190438
0,0.393639,1.354192,1.651775,1.857698,3.65952,0.63723,-0.671132,-2.479232,-2.761748,-2.186671,-0.279377,-2.225596,0.237941,0.811762
0,0.250497,2.447841,-1.535002,0.78916,3.703467,0.25552,0.782882,1.138224,-0.60835,-0.71759,0.529246,-1.32029,-3.763737,-1.953125
0,1.147014,4.08141,-2.796905,0.205295,0.078477,-1.180916,0.791672,0.357225,2.066131,1.615362,-0.116145,-0.078477,-3.923201,-2.246941
0,2.137702,3.102022,-0.089777,0.22664,-4.787071,-3.127135,-2.049808,-1.58146,3.497544,3.442297,-1.442086,0.381082,0.004395,0.28691
0,1.838863,-0.344669,2.975204,0.14628,-5.79785,-3.459875,-3.997283,-0.378571,1.458409,2.535735,-1.38056,1.720834,2.531968,2.150258
0,0.397405,-2.781838,2.94758,-0.190227,-2.411428,-1.885321,-2.77556,1.655542,-1.861464,-0.700011,0.632207,4.279799,1.093022,1.600294
0,-0.689966,-2.40515,1.147014,-0.402428,0.239197,-0.627185,-1.301456,0.658575,-1.362981,-2.349903,2.401383,4.823484,-0.689966,0.560637
0,-0.771582,-1.076699,-0.032018,-0.58826,-0.923512,-1.028985,-2.215551,-1.231141,3.140947,0.298211,1.686933,1.604061,0.559381,0.578215
0,-0.776604,-1.013917,-0.811762,-1.000106,-2.289633,-1.532491,-3.565348,-0.069687,5.465109,4.22204,-0.481532,-2.020929,3.127135,0.745214
0,-1.330335,-1.886577,-1.529979,-1.091766,0.217851,-0.332113,-2.672598,2.380038,1.880299,3.988494,-1.054097,-2.39385,3.541491,0.285655
0,-1.395627,-1.738413,-0.933557,-0.207806,4.158003,1.632941,-0.271843,1.880299,-3.38956,-0.600817,0.571937,-0.885844,1.281366,-0.101078
0,0.17516,0.659831,0.741447,1.187194,4.545991,2.176626,1.494822,-0.94988,-4.853619,-3.989749,1.615362,-0.987549,-1.639219,-0.176415
0,2.476721,4.375226,1.128179,2.081199,1.915456,1.337869,1.912945,-2.539502,-3.210006,-2.882288,0.121168,-2.63493,-3.446063,-0.635974
0,3.178615,6.370415,-0.124935,2.121379,0.771582,1.163337,1.265042,-2.427751,-1.959403,-0.448886,-2.127657,-3.009106,-3.512612,-1.258764
0,1.247464,3.974682,-0.796694,1.3002,1.719579,2.062364,0.541802,-1.953125,-0.976249,-0.362248,-2.28461,-1.368004,-2.029718,-1.074187
0,-1.792405,-1.555092,-0.571937,-0.471487,1.256253,1.690699,1.573926,-0.258031,1.487288,-1.081721,-0.263053,0.386105,0.006906,-0.408706
0,-3.520145,-5.456319,-1.332846,-2.377526,-1.232396,-1.336613,4.224551,3.004083,3.792616,0.298211,1.709534,1.165848,1.390605,-0.329602
0,-2.986505,-4.920167,-2.482999,-2.739146,-2.521923,-4.314956,4.728057,4.449308,3.201217,2.376271,2.056086,1.637963,1.917968,-0.402428
0,-1.244952,-2.349903,-1.435807,-1.428274,-1.830074,-3.251442,1.084232,2.002094,0.839385,2.185416,0.88961,1.907923,2.243174,0.389872
0,0.06592,-1.36047,0.867009,-0.549336,-1.894111,1.566392,-2.077432,-0.389872,-0.256775,0.511667,-0.825574,1.114367,2.196716,1.031496
0,0.362248,-1.707023,0.954903,-1.135713,-3.084443,5.187616,0.162603,1.113112,-0.043319,-0.261798,-1.759759,-0.236685,0.565659,-0.118657
0,0.425029,-0.845664,-0.403684,-1.266298,-2.583449,3.967148,3.965892,3.021662,-0.384849,-0.799205,-0.917234,-0.072198,-2.381293,-1.728368
0,1.187194,1.38056,0.77786,0.545569,-0.417495,-0.13498,1.482266,0.018207,-1.134457,-2.253219,0.912212,1.993305,-3.560325,-0.79795
0,2.356181,2.940046,3.620595,2.427751,0.188972,-2.682643,-6.379204,-5.461342,-1.066654,-2.180393,1.458409,3.156014,-0.639741,2.263264
0,2.559592,3.331802,2.902378,2.253219,-0.224129,-2.249453,-10.228951,-6.548713,-0.755259,1.198494,-0.101078,0.877054,3.516378,3.468665
0,1.095533,3.604272,-1.371771,1.281366,2.64623,-0.630952,-5.905833,-2.731613,-1.056609,3.700955,-1.754736,-3.330546,3.397094,1.056609
0,-0.899655,3.301667,-3.086955,1.464687,7.667476,0.73768,0.307,0.325835,-0.785394,1.016429,-1.423251,-5.458831,-1.275087,-1.890344
0,-1.565137,1.074187,-0.440097,1.509889,7.166481,1.519934,2.131424,0.593283,0.921001,-2.913678,0.22664,-3.884277,-4.234596,-2.105056
0,-0.477765,-1.723346,1.136969,-0.44763,-0.77786,0.722612,1.378049,1.415717,2.098778,-1.354192,1.155803,-0.923512,-1.694466,-0.5079
0,0.8984,-1.868998,-0.988805,-2.36497,-6.941724,-2.149003,2.210528,3.508845,0.980015,3.523912,0.840641,0.463954,1.781104,0.1061
0,1.003872,0.468976,-2.127657,-1.184682,-4.077643,-4.617562,3.687144,3.158525,-0.623418,3.685888,0.237941,-0.001883,0.846919,-0.455164
0,-0.151303,1.017684,0.635974,1.298944,1.752225,-3.667054,2.538246,-0.237941,-0.222873,-1.061631,0.016951,-0.240452,-1.504867,-0.172648
0,-1.379304,-2.334835,2.853408,0.72889,1.000106,-0.578215,-0.667365,-2.04353,0.990061,-2.751703,0.288166,1.568904,0.851942,1.473476
0,-1.818773,-5.897044,0.776604,-2.449097,-4.188138,0.722612,-2.396361,-0.0948,0.073454,0.712567,1.098044,4.956581,5.892021,2.612328
0,-1.522446,-5.285554,-2.146491,-3.502567,-4.539713,0.178927,-1.115623,1.838863,-2.624885,2.189183,1.856442,7.099933,5.840541,1.734646
0,-0.821807,-1.421996,-1.797428,-1.198494,0.520457,1.557603,1.538769,0.907189,-3.651986,-1.511145,1.319034,5.124834,-0.150047,-0.41624
0,0.103589,1.666843,-0.178927,0.722612,3.014128,5.165014,3.346869,-0.460187,-1.433296,-3.993516,-0.653553,-0.543058,-4.657742,-2.098778
0,0.874543,2.784349,-0.545569,0.494089,1.055353,6.365392,3.474943,-0.02574,1.555092,-1.290155,-2.460398,-5.716234,-4.003561,-2.562103
0,0.843152,3.492522,-1.334102,0.727635,1.314012,3.420951,2.563359,0.261798,2.251964,1.013917,-2.88731,-6.700644,-2.691433,-2.274565
0,-0.010673,3.700955,-0.108612,2.34488,5.333268,0.814273,1.56137,-0.813017,1.045308,-1.253742,-2.533224,-4.426707,-3.80015,-1.852675
0,-0.553103,1.876532,1.281366,2.216806,5.293088,1.362981,0.244219,-0.592027,0.97876,-2.562103,-2.054831,-2.524435,-3.67082,-1.296433
0,0.231663,-0.844408,0.659831,-0.592027,-2.012139,0.982527,-2.426496,1.645497,3.138435,1.866487,-0.736424,-2.004606,0.230407,-0.137491
0,1.538769,-1.450875,0.219107,-2.013395,-7.672498,-3.693422,-5.822962,1.537513,4.533435,6.011306,1.755992,-0.604584,3.914412,1.747203
0,1.438319,-0.31579,2.107567,0.138747,-4.131635,-7.869631,-7.168992,-2.668831,2.121379,2.785605,3.773782,2.57466,3.768759,3.446063
0,-0.372293,-0.854453,3.380771,1.897878,2.596005,-5.54798,-5.035685,-5.111023,-2.287121,-3.107045,3.560325,4.984204,2.352414,3.544002
0,-1.626662,-2.870987,0.743958,-0.024485,2.667576,-0.123679,-1.653031,-1.292666,-4.060064,-2.356181,1.560114,4.357647,2.852153,1.825051
0,-0.244219,-1.599039,-3.024173,-2.16407,-2.429007,-0.070943,0.102333,3.21754,-2.533224,3.734857,-0.384849,1.914201,3.446063,0.035785
0,2.722823,4.05253,-3.037985,-0.264309,-3.968404,-5.510311,0.468976,0.927279,-1.987027,5.742602,-1.032752,0.156325,1.744691,-0.015695
0,3.993516,7.533124,-0.229152,2.879776,-0.428796,-7.225495,1.631685,-4.761959,-4.615051,1.100556,-0.181438,-0.426285,-0.296955,1.026474
0,1.671865,3.186149,0.39615,1.715812,2.240663,-0.07471,4.27352,-4.056297,-6.435707,-3.59046,1.325312,-0.72889,-0.544314,0.620907
0,-2.769281,-5.052008,-1.956892,-2.721568,2.042274,9.645085,6.931679,3.925712,-2.799416,-4.142935,1.399394,-0.966204,-1.297689,-2.240663
0,-5.892021,-8.507489,-2.901122,-4.281054,2.535735,12.963703,7.46532,9.761858,4.807161,-3.216284,-1.410695,-1.170871,-4.859897,-5.295599
0,-5.244119,-4.912634,-0.14628,-1.241186,3.959614,8.828929,4.352625,7.577071,10.196305,-2.839596,-5.064564,-2.049808,-7.949991,-5.46762
0,-1.416973,0.377315,3.163548,1.9029,2.323535,2.42524,-1.52119,1.424507,9.102655,-1.125668,-5.529146,-3.280321,-5.578115,-2.267031
0,2.327301,2.729101,3.486243,2.057342,-2.046041,-2.642463,-5.966103,-3.247675,2.673854,1.965681,-2.115101,-2.572148,1.390605,1.960659
0,3.110812,2.557081,1.46092,1.042797,-3.772526,-5.959825,-5.280532,-6.023862,-4.046252,2.85592,1.580204,1.129435,6.831229,4.513345
0,1.443341,1.673121,-0.240452,0.68871,-1.732135,-6.878943,-1.404417,-7.073565,-6.17077,0.643508,3.145969,4.858642,6.714456,4.335046
0,0.368526,0.418751,-0.811762,-0.127446,-0.995083,-4.605006,0.264309,-4.214506,-3.246419,-0.751492,4.024907,4.74438,2.73538,2.192949
0,1.273832,-0.633463,-0.986294,-1.72209,-3.233863,-1.023962,-1.286388,1.767293,0.214084,0.799205,4.981693,1.046564,-1.008895,-0.187716
0,2.088733,-0.176415,-0.767815,-1.660564,-3.061842,0.83813,-1.640474,5.128601,0.221618,1.994561,3.379515,-2.495555,-2.440308,-1.408184
0,0.607095,1.266298,0.087266,0.836874,2.378782,1.271321,1.077954,2.732868,-1.52119,0.013184,-1.635452,-3.59046,-2.116356,-1.409439
0,-1.984516,1.346658,0.377315,2.39385,7.073565,2.842108,2.724079,-1.178404,-0.792927,-2.31349,-5.434974,-2.811973,-1.128179,-1.113112
0,-2.73538,-0.337135,-1.133202,0.461442,4.625096,4.692899,0.183949,-1.468454,2.223084,-0.880821,-3.918179,-0.927279,0.197761,-0.983782
0,-1.072932,-1.335357,-2.912423,-2.269543,-1.987027,2.66632,-3.350636,0.882077,3.574137,3.129646,0.040808,1.629174,1.562626,-0.558125
0,0.771582,-0.360992,-2.074921,-1.911689,-4.951558,-3.356914,-3.67961,1.880299,2.179138,4.966626,1.174637,2.859686,2.086221,0.417495
0,1.154547,0.669876,0.97876,0.566915,-2.734124,-7.329712,-1.625407,0.851942,0.730146,3.090722,0.010673,0.833107,1.513656,1.287644
0,0.802972,0.182693,2.435285,1.271321,-0.570682,-5.323223,0.033274,-0.191483,0.127446,0.421262,0.710056,-2.200483,0.904678,1.395627
0,0.942347,-0.293188,0.888355,-0.093544,-1.19975,-1.155803,1.514912,-0.7088,-1.703256,-0.990061,2.879776,-1.573926,0.609606,0.884588
0,1.341636,0.946114,-0.145025,-0.098567,-1.172126,0.511667,3.899344,-1.577693,-4.856131,-2.793138,2.141469,2.56587,-0.941091,0.178927
0,0.956159,2.317256,1.941824,2.146491,2.38506,1.845141,5.534168,-2.496811,-6.213461,-6.302611,-1.729624,4.306167,-4.09271,-0.595794
0,-0.509156,1.096789,3.933246,3.109556,6.287543,6.453286,4.618817,-2.170348,-4.14168,-8.580315,-3.895577,0.56817,-5.492733,-1.278854
0,-2.310978,-2.295911,1.798683,0.564404,5.696144,10.419806,2.469187,-0.16637,-0.353459,-5.796594,-2.3047,-3.781315,-2.451608,-1.487288
0,-3.319245,-4.652719,-2.211784,-2.601028,1.177149,6.9141,0.731402,2.703989,3.276554,0.640997,-0.320812,-3.046775,1.867743,-1.160826
0,-2.611073,-3.901855,-2.757981,-2.690177,-2.390083,-2.133935,-1.651775,4.76447,5.885743,5.116045,-0.25552,0.92979,2.334835,-0.638485
0,-0.17516,-0.781627,-0.088522,-0.492833,-2.844619,-7.675009,-5.379726,4.016117,5.994983,5.244119,0.020718,2.268287,-0.121168,0.01444
0,2.484255,2.590983,0.435074,0.506645,-2.751703,-6.596427,-7.680032,0.219107,3.01664,4.469398,2.051064,0.191483,0.083499,0.980015
0,3.18866,4.044997,-2.781838,-0.696244,-4.160514,-4.495766,-5.854353,-3.448575,-0.019462,5.767715,3.557814,-0.924768,3.982215,1.841374
0,1.356703,2.309723,-5.073354,-2.073665,-5.241608,-4.620073,-1.498589,-3.296644,0.263053,6.69311,2.638696,0.549336,6.273732,1.72209
0,-0.957414,-1.311501,-2.917445,-2.022184,-3.737369,-3.040497,1.941824,0.055875,2.098778,3.608039,0.874543,1.270065,3.581671,0.55687
0,-1.270065,-3.122112,1.330335,-0.721357,-0.499111,2.421473,3.549025,2.226851,0.923512,-2.201739,-0.093544,-0.801717,-1.11939,-0.622162
0,0.263053,-0.967459,3.687144,1.222351,2.651253,6.901544,4.154236,0.723868,-3.33808,-6.341535,-1.169615,-2.8961,-3.870465,-1.017684
0,1.19975,2.801928,3.356914,3.150992,5.642152,6.23104,3.669565,-2.416451,-6.163236,-7.130068,-2.798161,-2.12389,-4.494511,-0.926024
0,0.334624,4.240874,1.787383,3.839074,8.081832,3.061842,1.995816,-3.839074,-5.269231,-5.994983,-3.191172,0.05462,-4.208228,-0.894633
0,-0.742702,2.583449,0.337135,2.602283,7.352314,1.133202,0.437585,-2.321023,-2.873498,-3.748669,-1.695722,0.612117,-2.863453,-0.814273
0,-0.369782,-0.060898,0.116145,0.524224,2.262009,-0.314534,-0.182693,1.021451,-1.216073,-0.502878,-0.268076,-0.147536,-0.578215,-0.283143
0,0.578215,-2.341113,1.341636,-0.899655,-3.577904,-2.37376,-0.884588,3.782571,-0.192738,1.876532,0.224129,0.639741,1.193472,0.634719
0,0.402428,-4.034952,2.267031,-1.567648,-5.752647,-2.883543,-2.218062,3.709745,0.632207,1.524957,1.221096,3.59925,1.717068,1.381816
0,-0.442608,-3.905622,1.108089,-1.894111,-4.689132,-1.315267,-2.834574,1.087999,1.432041,0.384849,2.401383,5.534168,1.72209,1.409439
0,-0.312023,-0.9097,-1.208539,-1.493566,-3.728579,-1.437063,-1.925501,-0.986294,3.113323,2.095011,1.147014,3.305433,1.684421,0.65732
0,0.48781,2.662553,-2.592238,-0.360992,-3.279065,-4.559803,-0.747725,-0.580727,5.544213,5.897044,-1.895366,-1.880299,1.562626,-0.259287
0,0.075965,2.980227,-2.933768,0.15507,-1.094277,-5.752647,-0.299467,0.34718,5.915878,6.728268,-2.028463,-5.310667,1.759759,-0.543058
0,-1.568904,0.084755,-2.999061,-0.549336,2.597261,-1.587738,0.18646,-0.550592,2.407661,2.390083,1.774826,-4.07262,2.059853,-0.173904
0,-2.160303,-1.891599,-1.965681,-0.86952,4.556036,3.702211,1.290155,-1.896622,-2.068643,-3.102022,3.962125,-0.39615,0.848175,-0.009417
0,-0.687455,-0.76907,0.551847,0.25552,3.247675,4.897566,2.308467,-1.130691,-3.505078,-4.987971,1.098044,1.336613,-2.057342,-0.558125
0,0.912212,0.776604,2.010884,1.007639,0.619651,3.547769,2.852153,0.877054,-2.33358,-3.395838,-2.136446,0.080988,-3.643197,-1.177149
0,0.736424,-0.099822,0.41624,-0.374804,-1.115623,3.698444,3.115834,1.475987,-1.452131,-1.493566,-0.727635,-1.267554,-1.843886,-1.066654
0,-0.317045,-1.874021,-1.552581,-2.025951,-1.580204,4.535946,2.26452,0.76907,-1.076699,-0.726379,2.042274,-0.538035,0.581982,-0.502878
0,-0.123679,-1.214817,-0.044575,-0.913467,-1.012662,2.99655,-0.662342,0.60835,-0.04583,-0.519201,0.259287,0.981271,-0.096055,-0.212828
0,1.600294,1.865231,3.825262,2.310978,0.319557,-0.142513,-4.091455,0.627185,0.165115,-0.669876,-4.319979,1.241186,-2.692688,-0.039552
0,3.083188,4.039974,5.472643,4.037463,1.258764,-2.239408,-5.067076,-0.647275,-2.013395,-1.136969,-4.98546,0.510412,-2.990272,0.676154
0,2.685155,3.139691,3.255208,2.690177,0.71759,-3.459875,-3.143458,-2.077432,-3.764992,-0.75777,-0.856964,0.193994,-0.207806,1.588994
0,0.458931,0.423774,-0.308256,0.214084,-0.318301,-4.711734,-0.491577,-1.409439,-1.550069,1.085488,2.37376,0.366015,2.358692,1.508634
0,-2.030974,-1.640474,-2.599772,-1.169615,0.05462,-4.449308,1.434552,0.570682,2.367481,2.567126,1.707023,0.293188,2.578426,0.31579
0,-3.081932,-2.262009,-3.020407,-1.301456,1.378049,-2.073665,2.578426,1.263787,2.972693,1.900389,0.173904,0.162603,1.847653,-0.540547
0,-2.40515,-2.239408,-2.189183,-1.15957,1.113112,-0.686199,2.619862,0.499111,0.779115,0.584494,0.60835,0.569426,1.992049,-0.08601
0,-1.258764,-2.038508,-1.409439,-1.332846,-1.332846,-1.961914,1.551325,-0.083499,0.68871,0.991316,1.855186,1.172126,2.467931,0.692477
0,-0.644764,-1.167104,-1.616617,-1.583971,-3.251442,-2.449097,0.624674,-0.505389,3.221307,1.945591,2.150258,1.262531,1.594016,0.420007
0,0.015695,0.510412,-1.573926,-1.134457,-2.48551,0.45642,-0.020718,-1.494822,3.65952,0.754003,1.615362,0.902167,-0.725124,-0.479021
0,1.462176,1.930524,0.509156,0.279377,-0.431307,3.508845,-2.28461,-1.627918,0.421262,-1.396883,0.461442,0.296955,-2.539502,-0.590772
0,2.622373,1.973215,3.058075,1.502356,0.595794,3.46992,-5.477665,0.551847,-2.3047,-1.143247,-1.497333,-0.974993,-2.336091,-0.040808
0,1.792405,0.819295,2.680132,1.229885,0.987549,2.838341,-4.389038,3.001572,-1.828818,0.342158,-2.912423,-2.770537,-1.415717,-0.37606
0,-0.457675,-0.430052,0.153814,0.148792,2.230618,4.348858,3.152247,2.769281,-0.922257,-1.489799,-1.988283,-3.493777,-2.249453,-1.772315
0,-1.524957,-0.993827,-0.271843,0.006906,3.130902,5.172548,10.373348,0.712567,-2.208017,-5.913367,0.143769,-2.037252,-4.238363,-2.352414
0,-0.338391,-0.702522,1.578949,0.614629,1.251231,2.587216,9.346246,-0.25552,-3.680865,-6.323957,0.500367,0.224129,-3.718534,-1.081721
0,1.188449,0.285655,1.223607,0.25552,-2.199228,-0.240452,1.755992,-0.050853,-2.593494,-0.525479,-1.125668,1.093022,0.392383,0.543058
0,1.095533,1.332846,-1.9029,-0.802972,-2.970182,-0.65732,-4.562314,-0.531757,0.099822,5.136135,-1.940569,0.61714,4.097733,0.988805
0,0.004395,1.438319,-2.475465,-0.359737,-0.190227,-2.506856,-6.885221,-1.415717,1.919223,5.314434,-0.733913,0.761537,4.03244,1.0993
0,-0.569426,0.132468,1.302711,1.483521,1.945591,-8.101922,-7.952502,-1.218584,2.466676,2.729101,0.747725,2.338602,2.482999,2.213039
0,-0.92979,-1.993305,3.65073,1.684421,0.711312,-10.810305,-7.602183,-0.71759,2.573404,1.691955,1.371771,3.93199,3.089466,3.34938
0,-2.064876,-3.67082,0.684944,-0.75777,-1.173382,-4.947791,-2.857175,-1.370515,2.200483,1.101811,2.039763,3.803917,4.460609,2.550803
0,-2.757981,-3.403372,-3.054308,-2.642463,-0.86952,2.994038,4.248408,-1.863976,1.155803,-1.071676,2.857175,1.650519,2.627396,0.131213
0,-0.785394,-0.31579,-2.466676,-1.435807,-0.225385,3.654497,7.346035,-0.313278,0.119912,-2.400128,2.250708,-1.478499,-2.16407,-1.786127
0,2.81574,3.983471,0.078477,0.867009,-1.295177,0.1061,5.050753,1.825051,-0.403684,-0.879565,0.01444,-3.92069,-5.804128,-2.437796
0,3.872976,5.500266,0.068432,1.185938,-1.394372,1.961914,2.503089,2.120123,-0.754003,0.124935,-1.715812,-4.343836,-6.303867,-2.825785
0,0.879565,2.338602,-1.339124,-0.015695,2.018418,8.115734,2.678876,1.550069,-1.051586,-2.170348,-1.759759,-2.913678,-5.127346,-3.203728
0,-2.209273,-1.838863,-0.638485,-0.330857,5.117301,8.403272,2.589727,2.190438,-0.967459,-3.962125,-1.464687,-1.13948,-3.291622,-2.456631
0,-1.413206,-2.157792,1.351681,0.46772,2.737891,0.834363,-0.44763,2.570893,-0.766559,-0.996339,-1.821284,0.033274,-0.182693,-0.210317
0,1.506122,0.471487,1.792405,0.782882,-2.81574,-5.5078,-4.265987,0.141258,-0.988805,3.584182,-1.724601,1.069165,3.697189,2.256986
0,2.017162,1.000106,1.262531,0.309512,-4.709222,-5.046986,-5.360892,-3.314223,-1.164592,3.903111,-0.551847,2.171604,5.97866,3.503822
0,-0.230407,-1.483521,1.710789,0.104845,-1.816262,-1.875276,-3.253953,-3.79136,-0.531757,0.452653,0.191483,2.318512,5.102233,3.102022
0,-1.545047,-2.584705,2.008373,0.31579,0.691222,-0.422518,-0.138747,-1.459664,0.293188,-1.669354,-0.333369,1.233652,2.106311,1.504867
0,-0.500367,-0.506645,0.39615,0.13498,0.293188,-0.073454,1.52119,-0.004395,0.151303,-1.01894,-0.274354,0.579471,-0.559381,-0.140002
0,0.353459,0.902167,-1.285132,-0.357225,-0.078477,-0.247986,0.963692,-0.433819,-0.590772,-0.578215,1.885321,1.404417,-1.378049,-0.560637
0,-0.501622,-0.765304,-0.458931,-0.301978,1.364237,-1.868998,-0.026996,-0.393639,-0.623418,-1.786127,4.276032,2.059853,-1.104322,0.129957
0,-1.093022,-2.120123,1.233652,0.170137,2.108823,-2.849641,0.544314,0.813017,0.253008,-2.623629,4.124101,0.738935,-1.560114,0.258031
0,0.109867,-0.078477,0.303233,-0.037041,0.34718,-0.073454,1.448364,1.324057,1.306478,-1.162081,1.776082,-1.533746,-2.73538,-0.996339
0,1.395627,2.710267,-2.75547,-1.056609,-1.858953,3.99226,0.274354,0.874543,2.299678,2.02344,-0.458931,-2.687666,-2.511878,-2.240663
0,0.833107,2.533224,-4.14168,-1.582716,-2.098778,4.12159,-1.293922,1.406928,3.093233,4.588682,-2.206761,-2.648741,-0.438841,-2.16407
0,-0.726379,0.480277,-2.435285,-0.723868,-0.622162,1.096789,0.461442,3.035474,2.769281,4.264731,-4.568592,-2.162814,0.698755,-1.567648
0,-1.590249,-0.524224,0.026996,0.678665,1.354192,0.148792,3.727324,3.311712,0.966204,1.091766,-6.470865,-0.745214,-0.539291,-1.433296
0,-1.82254,-0.947369,1.128179,1.144502,3.098255,1.812495,2.86722,1.277599,-0.785394,-1.985771,-5.077121,1.321546,-1.144502,-0.887099
0,-1.990794,-2.427751,1.211051,0.368526,3.281577,1.84263,-1.374282,-1.023962,-0.821807,-2.337346,-0.354714,1.448364,1.326568,0.850686
0,-1.190961,-3.191172,1.271321,-0.514179,0.598305,-1.067909,-2.309723,-2.057342,0.091033,-0.841897,3.985982,-1.114367,3.92069,2.418962
0,1.531235,-0.36727,1.535002,-0.182693,-3.40965,-4.494511,0.247986,-3.063098,-0.653553,0.062153,5.192638,-2.174115,3.107045,2.668831
0,4.814695,4.597472,2.105056,1.570159,-4.657742,-7.171504,-1.136969,-5.412373,-4.407872,-0.170137,4.332535,1.635452,0.99885,2.903633
0,5.785293,6.900288,2.938791,3.436018,-1.233652,-7.996449,-6.710689,-7.430162,-9.008483,-1.101811,3.240141,6.25113,1.046564,3.88051
0,3.166059,4.237107,2.901122,3.387049,3.525168,-3.595483,-6.125568,-5.529146,-9.460508,-3.004083,1.522446,5.074609,0.907189,2.992783
0,-1.212306,-1.077954,0.836874,0.530502,4.111545,5.725023,3.834052,1.359214,-2.347391,-4.529668,-1.383071,-0.988805,-3.198705,-1.659309
0,-4.051275,-5.296855,-2.052319,-3.414673,-0.92979,11.659108,10.866809,9.038618,8.784982,-2.290888,-3.625618,-4.60375,-7.711422,-6.37167
0,-3.753692,-6.393016,-3.041752,-5.231563,-6.526112,7.848286,5.549236,11.003672,14.533234,3.270276,-3.054308,-2.681388,-5.714978,-5.80915
0,-1.891599,-4.553525,-1.732135,-3.557814,-6.076598,0.02574,-3.641941,5.453808,9.579793,5.933457,-0.505389,0.377315,1.484777,-0.895889
0,-0.952392,-1.393116,-0.731402,-0.442608,0.570682,-2.436541,-4.559803,-1.796172,-0.24673,2.477976,1.288899,0.605839,5.34708,2.270798
0,-0.95867,1.278854,-1.364237,1.332846,6.182071,-0.531757,-0.084755,-3.805172,-5.114789,-1.473476,1.015173,-0.4966,2.800672,1.221096
0,-0.015695,2.745425,-1.497333,1.560114,5.098466,-1.511145,-0.087266,-0.903422,-3.495033,-0.136235,-0.65732,-0.391127,-0.339647,-0.369782
0,1.806217,3.311712,0.298211,1.763526,0.575704,-5.136135,-3.502567,0.888355,-1.566392,3.210006,-2.54578,0.269332,0.260542,0.368526
0,1.930524,3.091977,1.315267,2.009628,-0.5079,-4.906356,-2.26452,-0.877054,-2.027207,2.593494,-3.274043,-0.057131,1.695722,1.276343
0,-0.319557,1.860209,-0.971226,0.948625,2.037252,-0.244219,2.923723,-2.451608,-1.335357,-0.442608,-1.610339,-1.060376,0.681177,-0.015695
0,-1.904156,0.013184,-3.517634,-1.090511,2.417706,3.071887,4.401594,-1.276343,1.576437,-1.101811,1.637963,-1.72209,-0.915979,-1.591505
0,-0.718845,-1.52119,-1.437063,-1.755992,-1.034007,2.924979,1.502356,-0.217851,2.289633,-0.848175,3.497544,-1.442086,-0.585749,-0.653553
0,0.941091,-2.375015,3.953336,-0.210317,-3.280321,2.034741,0.345925,-1.766037,-0.839385,-3.595483,2.426496,0.305745,0.350947,1.708278
0,0.378571,-2.624885,6.178304,1.335357,-1.435807,0.932302,1.856442,-3.161037,-2.913678,-6.390505,0.56817,2.839596,0.018207,2.418962
0,-0.785394,-1.857698,2.983993,0.882077,0.430052,-1.680654,0.992572,-1.281366,-0.686199,-3.57916,0.517945,3.560325,-0.607095,1.111856
0,0.529246,0.249242,-0.696244,-0.484044,-1.484777,-3.466153,-3.020407,1.607828,1.831329,2.449097,1.531235,1.295177,-0.309512,-0.03453
0,3.348125,2.569637,-0.574449,-0.594539,-4.286077,-1.398139,-5.054519,1.562626,0.234174,4.105267,1.270065,-1.065398,-0.145025,0.026996
0,3.970915,3.25772,1.248719,0.471487,-3.483732,1.729624,-2.725335,-0.458931,-3.095744,0.689966,-0.273098,-0.61714,-0.971226,0.256775
0,1.703256,1.990794,0.80925,0.848175,-0.318301,1.101811,0.448886,-0.398661,-3.149736,-1.090511,-1.216073,0.873287,-1.398139,-0.204039
0,-0.632207,0.251753,-1.684421,-0.161348,0.943602,-1.976982,0.791672,2.282099,0.265565,1.831329,-1.049075,0.350947,-0.304489,-0.907189
0,-1.465942,-0.730146,-3.387049,-1.314012,0.360992,-2.501833,-1.378049,4.208228,3.335568,4.972904,-0.903422,-0.846919,0.92979,-1.277599
0,-2.115101,-1.15957,-3.255208,-1.297689,1.699489,0.016951,-3.015384,3.452342,3.708489,3.859164,-1.302711,0.312023,0.521712,-1.421996
0,-3.403372,-1.600294,-2.053575,-0.167626,5.438741,2.020929,-1.104322,1.36047,1.975726,-0.490322,-1.757248,2.210528,-0.954903,-1.475987
0,-3.888044,-1.815006,-0.32709,1.026474,7.274465,2.236896,4.211995,-0.640997,-0.147536,-4.174326,-1.905411,0.570682,-1.349169,-1.074187
0,-2.406406,-1.268809,1.212306,1.272576,4.304911,1.999583,8.135824,-2.524435,-0.912212,-4.498277,-1.469709,-4.174326,0.31579,0.013184
0,-0.103589,-0.176415,1.273832,0.39615,-0.902167,1.644241,6.144402,-3.793872,0.338391,-1.591505,-0.128702,-6.84253,2.601028,1.13948
0,1.213562,0.587005,0.008162,-0.735169,-3.867954,1.027729,0.689966,-3.167315,1.789894,1.455897,1.305222,-4.542224,2.971437,1.266298
0,1.283877,0.462698,-0.514179,-1.036519,-3.520145,0.864498,-2.004606,-0.836874,0.919745,1.385582,1.349169,0.538035,0.721357,0.388616
0,1.027729,-0.338391,0.4966,-0.580727,-2.312234,0.414984,-1.533746,1.218584,-1.62164,-0.667365,0.679921,4.794605,-1.46092,-0.116145
0,0.973737,-1.248719,1.07921,-0.554359,-2.449097,-2.238152,-2.74668,1.786127,-2.39385,-0.303233,1.850164,5.964848,-0.44763,0.72889
0,1.012662,-1.620384,-0.013184,-1.326568,-3.552792,-5.343313,-5.634618,1.467198,-0.236685,2.946325,4.488232,3.42974,2.540758,1.841374
0,1.203517,-0.59705,-0.736424,-1.38056,-3.654497,-4.229574,-4.702944,0.743958,1.709534,3.939524,4.263475,-0.707545,2.725335,1.423251
0,1.843886,2.113845,1.035263,0.646019,-1.577693,0.755259,0.177671,-0.893377,0.320812,-0.117401,-0.461442,-2.254475,-1.388094,-0.200272
0,2.602283,4.798372,3.620595,3.34938,1.62164,3.35817,1.992049,-2.950091,-3.152247,-4.694155,-4.66402,0.193994,-5.181338,-0.894633
0,2.28461,4.554781,3.596738,3.736113,3.506333,0.927279,-1.445852,-3.099511,-4.622584,-4.471909,-3.4988,2.911167,-4.304911,-0.070943
0,0.240452,0.96997,0.707545,1.278854,2.98776,-1.946847,-3.301667,-0.210317,-2.154025,-0.741447,0.280632,2.282099,-0.765304,0.373549
0,-2.278332,-2.383805,-2.004606,-1.084232,1.827563,-1.710789,0.540547,3.06812,1.884066,1.636707,0.914723,-0.440097,0.731402,-0.700011
0,-3.246419,-2.248197,-2.66632,-1.054097,2.210528,-0.412473,4.719267,3.147225,3.692166,1.330335,-1.243697,-2.35367,-0.093544,-1.779849
0,-2.442819,-0.227896,-2.547036,-0.151303,3.326779,0.48781,4.194416,0.431307,2.358692,0.629696,-1.497333,-3.292877,0.119912,-1.389349
0,-1.663076,-0.2957,-3.060587,-0.900911,2.466676,2.92749,2.187927,-1.123157,0.425029,0.780371,0.325835,-3.733602,2.157792,-0.494089
0,-1.912945,-2.677621,-3.186149,-2.552058,-0.549336,5.892021,2.696455,0.34718,0.188972,1.055353,0.05462,-2.322279,3.38956,-0.423774
0,-1.897878,-3.753692,-1.429529,-2.412684,-2.872243,4.350114,2.756725,2.192949,1.116879,1.223607,-2.319768,0.775349,2.653764,-0.383594
0,-0.280632,-1.86272,1.184682,-0.495344,-3.118345,-1.924246,-1.346658,1.639219,1.753481,1.905411,-1.911689,2.027207,1.666843,0.764048
0,1.920479,0.59705,2.20425,0.563148,-2.965159,-6.01884,-6.120545,-0.201528,2.007117,2.710267,2.191694,-0.112378,1.305222,1.920479
0,2.658786,1.378049,1.277599,0.010673,-3.100767,-3.83154,-5.727535,-0.867009,1.74218,2.037252,4.62384,-1.896622,0.290677,1.405672
0,1.614106,1.070421,0.492833,-0.129957,-1.555092,0.561892,-0.816784,-0.694989,-0.283143,-0.894633,2.515645,-0.148792,-1.673121,-0.059642
0,0.207806,0.689966,1.0993,0.947369,1.812495,2.275821,3.002828,-1.389349,-3.390816,-4.410384,-0.18646,2.598516,-2.756725,-0.500367
0,-0.435074,0.013184,1.959403,1.482266,3.241397,1.557603,2.872243,-2.131424,-3.862931,-5.363403,-0.132468,2.74668,-2.077432,0.129957
0,-0.231663,-0.558125,1.787383,0.6975,0.707545,0.080988,0.64853,-0.87831,-0.422518,-2.503089,0.14628,1.319034,-1.101811,0.308256
0,0.495344,0.294444,0.900911,0.200272,-2.122634,-1.863976,-0.93858,1.262531,2.283354,1.369259,-1.693211,0.922257,-0.8984,-0.211573
0,1.121901,2.029718,-0.097311,0.664854,-1.261276,-2.520668,-0.944858,0.91849,0.205295,2.22434,-2.52569,0.987549,-0.510412,-0.293188
0,0.819295,2.362459,-1.470965,0.520457,1.732135,0.373549,-0.181438,-2.079943,-3.291622,-0.010673,0.391127,-0.010673,0.672387,0.17516
0,-0.271843,1.195983,-2.938791,-0.624674,3.045519,4.183115,-0.190227,-3.888044,-2.652508,-1.394372,3.340591,-1.224862,1.314012,0.104845
0,-0.620907,1.085488,-2.853408,-0.658575,2.387571,3.320501,-1.459664,-2.228107,0.76907,0.35597,1.690699,-1.798683,0.54808,-0.53678
0,0.59705,2.423985,-0.470232,1.114367,1.395627,-2.138958,-2.506856,0.702522,1.449619,2.926235,-2.339858,-2.688921,-0.05462,-0.409962
0,1.644241,1.80245,2.120123,1.926757,-0.332113,-5.812917,-1.813751,2.354925,-0.575704,3.397094,-3.281577,-3.246419,1.05912,0.75777
0,0.200272,-2.602283,2.005861,-0.363504,-3.21754,-3.914412,0.073454,3.476198,-0.12619,2.272054,-0.893377,-0.687455,2.547036,1.228629
0,-2.97646,-7.068542,-0.912212,-3.651986,-4.681599,0.678665,1.671865,5.217751,3.667054,1.523701,0.72889,4.017373,2.012139,-0.22664
0,-4.391549,-6.738313,-3.442297,-4.297377,-2.56587,3.61934,2.450353,5.510311,5.610761,1.089255,0.323323,5.112278,-0.180182,-2.100033
0,-2.343625,-2.062364,-2.54578,-1.725857,0.860731,3.487499,2.412684,1.933035,2.937535,-0.281888,0.088522,0.539291,-1.390605,-1.909178
0,0.726379,2.073665,1.027729,1.438319,2.157792,1.241186,1.690699,-3.235118,-0.80925,-2.24443,0.534269,-4.060064,-0.759025,0.21534
0,1.68191,2.761748,3.300411,2.653764,1.563881,-0.681177,1.455897,-4.937746,-1.990794,-3.171082,0.058387,-3.89181,-0.245475,1.44083
0,0.855709,1.771059,1.940569,1.737158,1.251231,0.122423,2.589727,-2.378782,-1.744691,-2.567126,-0.973737,-1.786127,-1.116879,0.296955
0,0.754003,1.735902,-0.460187,0.521712,1.396883,2.356181,2.953858,-0.288166,-2.455375,-1.583971,-0.409962,-1.744691,-1.791149,-0.987549
0,1.639219,2.220573,-0.260542,0.512923,1.021451,1.801194,-0.259287,-1.827563,-3.225073,-1.141991,1.654286,-1.72209,-0.502878,0.088522
0,1.292666,1.203517,1.086744,0.740191,0.200272,-1.674376,-5.023129,-3.855397,-1.556347,-0.430052,2.883543,1.305222,1.752225,2.073665
0,-0.707545,-0.865754,-0.890866,-0.752747,-0.75777,-2.808206,-6.318934,-2.179138,2.181649,1.920479,2.400128,4.451819,2.692688,1.632941
0,-1.645497,-1.086744,-5.175059,-2.903633,-1.685677,0.205295,-4.090199,1.398139,4.184371,4.848597,1.192216,3.729835,1.88281,-0.854453
0,0.132468,1.352936,-4.854875,-2.014651,-1.287644,1.939313,-3.25772,1.744691,1.523701,4.670298,-0.379827,1.356703,0.578215,-1.502356
0,2.475465,3.261487,2.135191,2.177882,0.856964,-1.093022,-4.656486,-1.213562,-3.55907,0.079732,-2.262009,1.42074,-0.481532,0.859475
0,2.783093,1.827563,8.152147,4.593705,1.350425,-4.484466,-3.215028,-2.077432,-5.315689,-4.175582,-2.970182,2.105056,-1.265042,2.690177
0,1.458409,-1.331591,6.316423,1.948103,-2.47421,-3.775037,2.691433,1.580204,-1.514912,-2.816995,-1.512401,-0.521712,-1.373026,1.326568
0,-0.199017,-3.102022,0.072198,-2.110078,-5.846819,-1.025218,7.700122,5.610761,3.350636,1.664331,0.116145,-4.126612,-0.771582,-1.332846
0,-2.653764,-3.580415,-3.471176,-2.914934,-2.033485,1.055353,8.193582,5.992471,4.288588,2.160303,-0.291933,-3.340591,-0.705034,-2.700222
0,-5.66852,-4.335046,-4.165537,-1.813751,5.673543,3.631896,6.905311,4.260964,2.621118,-1.504867,-1.306478,0.624674,-1.729624,-3.191172
0,-6.064042,-4.083921,-5.594438,-2.312234,6.809883,5.868165,5.683588,3.240141,2.587216,-1.86272,-0.345925,1.496077,-1.880299,-3.541491
0,-1.966937,-0.772837,-6.145658,-3.074398,-0.209062,3.415928,1.831329,1.833841,3.712256,3.34938,1.449619,-1.759759,0.583238,-2.246941
0,2.968926,3.410906,-2.013395,-0.814273,-5.181338,-2.427751,-4.571104,-2.008373,2.132679,6.356603,1.066654,-3.841585,3.711,1.209795
0,4.09271,4.460609,4.065087,2.884799,-1.945591,-3.662031,-7.942457,-6.651675,-2.20425,1.703256,-0.694989,-2.314745,4.209484,3.998539
0,2.519412,3.204983,5.781526,3.997283,3.446063,1.252486,-6.204672,-9.176737,-5.634618,-4.838552,-0.131213,-0.541802,2.354925,3.970915
0,2.542013,3.788849,3.100767,2.86722,4.120334,3.5101,-4.491999,-9.447952,-6.797327,-5.619551,2.874754,-0.485299,1.135713,2.898611
0,4.056297,5.718745,1.221096,2.410173,1.629174,-1.297689,-5.477665,-8.045419,-6.686832,-2.027207,4.136657,0.345925,1.265042,2.750447
0,3.14848,3.914412,1.368004,1.914201,-0.59705,-5.575604,-4.299889,-3.53019,-4.314956,0.373549,1.774826,2.911167,0.79795,2.116356
0,-0.722612,-2.452864,0.398661,-0.962437,-2.995294,-2.946325,1.876532,4.028674,1.281366,0.828085,-0.888355,4.004817,-0.932302,-0.519201
0,-3.893066,-7.622273,-1.799939,-4.175582,-4.473165,1.920479,7.411328,10.138546,6.419384,1.03903,-0.887099,2.061109,-2.781838,-3.35817
0,-4.552269,-7.504244,-2.24443,-3.856653,-1.244952,3.149736,6.866387,11.045107,6.945491,0.299467,-0.214084,0.008162,-4.395316,-4.303656
0,-4.210739,-4.471909,-1.257509,-1.222351,4.250919,2.633674,2.930001,8.808839,5.18636,-0.781627,-2.076176,-0.16637,-5.500266,-4.122845
0,-3.287855,-1.994561,-1.724601,-0.560637,3.57916,2.962648,0.517945,6.901544,5.683588,1.487288,-5.190127,-0.485299,-4.1015,-3.786338
0,-0.711312,-0.122423,-2.838341,-1.804961,-3.733602,1.789894,-0.108612,4.378993,6.404317,6.003772,-5.289321,-1.955636,0.192738,-2.202994
0,2.105056,1.604061,-1.439574,-1.393116,-7.288277,-1.234907,0.033274,-0.651042,2.26452,5.211473,-1.359214,-1.734646,3.20875,0.673643
0,2.352414,2.097522,1.339124,0.853197,-2.314745,-2.273309,1.575182,-5.660986,-4.76447,-2.122634,2.862198,1.52119,2.071154,2.466676
0,1.050331,1.894111,1.586482,1.961914,2.632418,-2.116356,2.326046,-7.618506,-8.009006,-5.827985,3.921945,4.111545,1.351681,2.734124
0,1.732135,3.466153,-0.152558,1.826307,1.17966,-5.590671,-2.049808,-8.532601,-7.059753,-0.212828,2.624885,2.631163,6.028885,4.110289
0,3.844097,6.175793,0.08601,2.785605,0.044575,-9.174226,-8.892966,-10.701066,-7.113745,4.922679,1.783616,-1.034007,10.876854,6.396783
0,3.258975,5.767715,2.169093,3.987238,5.340802,-3.250186,-8.974581,-10.172448,-8.144613,-0.190227,2.013395,-3.310456,6.517323,4.98546
0,-0.313278,1.065398,2.165326,2.226851,9.53459,9.486876,-0.632207,-2.618606,-4.425451,-8.240041,1.744691,-3.929479,-4.843574,-1.221096
0,-2.459142,-3.51889,-0.250497,-1.811239,3.73109,13.639229,5.948525,7.151414,4.416662,-6.409339,0.386105,-4.199439,-10.595594,-6.025118
0,-1.472221,-4.353881,-1.319034,-3.783827,-6.032651,4.515856,3.969659,10.034329,10.845463,2.652508,-0.82934,-3.73109,-5.868165,-4.626351
0,-0.618395,-3.015384,-0.219107,-2.391338,-7.593394,-4.15298,-0.227896,5.62834,9.802038,6.097944,-1.035263,-1.941824,0.446375,-0.779115
0,-1.658053,-2.174115,-0.27561,-0.816784,-1.452131,-2.495555,0.794183,2.074921,4.528412,1.960659,-0.810506,-0.048342,0.620907,-0.24673
0,-1.980749,-1.454642,-2.447841,-1.081721,1.914201,1.9029,3.533957,3.377004,0.379827,-0.251753,-0.833107,0.910956,-1.835096,-2.131424
0,-0.111123,0.097311,-3.377004,-1.468454,-0.512923,0.600817,1.777338,5.020618,-1.224862,2.515645,-1.134457,1.483521,-1.447108,-2.221829
0,1.271321,1.157059,-1.174637,-0.37606,-2.034741,-1.786127,-1.68191,3.002828,-1.305222,3.270276,-1.815006,1.939313,0.059642,-0.52799
0,0.152558,0.2957,1.676888,1.026474,0.216595,-0.067176,-0.993827,-0.425029,-0.780371,-0.667365,-2.774304,2.08371,-0.140002,0.39615
0,-1.473476,-1.614106,2.622373,1.150781,1.144502,0.178927,1.612851,-2.035996,-0.630952,-3.135924,-2.717801,3.325523,0.553103,1.020196
0,-1.404417,-2.901122,2.22434,0.303233,-1.788638,-5.247886,0.156325,-2.386316,-1.178404,-0.924768,-0.472743,6.704411,3.998539,2.91619
0,-0.593283,-2.86722,1.573926,-0.358481,-3.580415,-8.643096,-4.117823,-2.908656,-1.192216,1.153292,2.622373,8.943191,5.792827,4.174326
0,-0.584494,-1.248719,-0.004395,-0.43633,-0.280632,-3.16857,-4.908867,-3.109556,-0.187716,-0.373549,3.816473,6.015073,2.331068,2.140213
0,-0.6975,1.769804,-2.719056,-0.170137,4.394061,4.780793,-1.155803,-2.804439,-0.05462,-2.392594,2.547036,0.381082,-2.479232,-1.394372
0,0.369782,4.632629,-4.220784,0.28691,4.790838,6.307633,2.312234,-3.261487,-1.801194,-1.909178,0.713823,-2.48551,-3.258975,-2.477976
0,2.481743,5.755158,-2.196716,1.016429,1.206028,3.531446,2.63493,-4.431729,-3.191172,-0.349692,-0.343414,-4.653975,-0.715079,-0.743958
0,4.653975,5.576859,1.791149,1.881554,-1.600294,2.977715,1.438319,-4.209484,-2.439052,0.943602,-0.560637,-13.013928,1.58146,0.981271
0,5.712467,5.114789,3.2979,2.057342,-1.234907,3.939524,0.747725,-1.610339,-1.254997,2.829551,0.51669,-23.969258,2.741658,1.111856
0,4.208228,3.407139,0.538035,0.684944,0.317045,2.196716,0.87831,1.938058,-1.291411,4.257197,2.720312,-22.506455,2.54578,0.107356
0,-0.028252,-0.800461,-2.670087,-1.44083,0.587005,-1.562626,1.315267,4.908867,-0.892122,2.194205,3.246419,-2.857175,-0.643508,-1.354192
0,-4.377737,-5.762692,-1.52119,-2.097522,-0.283143,-4.26222,0.831852,6.73329,1.491055,-2.504345,-0.242963,19.729012,-5.455064,-2.279588
0,-5.784038,-8.120756,2.909911,-0.732657,-0.882077,-5.633363,-1.629174,6.615262,3.975937,-4.626351,-4.815951,26.363735,-6.310145,-1.331591
0,-4.389038,-6.9141,4.572359,0.332113,-0.865754,-5.782782,-4.441774,4.060064,4.469398,-1.821284,-5.278021,16.509588,-1.319034,0.868265
0,-2.676365,-3.834052,0.915979,-0.52799,-0.587005,-3.181127,-4.321234,0.652297,3.954592,2.1038,-1.806217,4.234596,3.513867,1.56137
0,-1.718323,-0.627185,-3.382027,-1.591505,0.103589,1.388094,-1.187194,-1.293922,3.693422,2.74668,0.59705,-1.251231,2.670087,-0.147536
0,-0.661087,1.491055,-3.323012,-0.976249,0.861987,4.371459,1.310245,-1.809984,2.490533,0.423774,0.196505,-2.004606,-0.820551,-1.550069
0,0.711312,1.528724,-0.500367,-0.050853,0.088522,4.876221,1.473476,-2.555825,-0.406195,-1.506122,0.019462,-2.503089,-0.67741,-0.497855
0,1.401906,0.247986,0.333369,-0.62844,-2.249453,5.006806,1.875276,-3.374493,-2.842108,-1.026474,0.982527,-3.942035,2.972693,1.242441
0,1.003872,0.178927,-1.472221,-1.308989,-2.671343,4.56357,4.188138,-2.451608,-2.825785,0.942347,0.448886,-6.111756,4.571104,0.946114
0,0.334624,1.992049,-2.710267,-0.165115,1.002617,1.768548,5.64843,0.008162,-1.449619,1.909178,-1.15957,-7.914834,1.660564,-0.924768
0,0.455164,3.199961,-1.665587,1.351681,4.438007,-1.52119,3.275298,1.152036,-0.851942,0.512923,0.263053,-6.636607,-2.283354,-1.690699
0,1.901644,2.516901,0.584494,1.140736,1.973215,-2.302189,-1.428274,-0.619651,-1.680654,-1.610339,4.370204,-1.550069,-3.099511,-0.197761
0,4.056297,2.307211,2.688921,0.661087,-3.736113,-2.53448,-4.588682,-3.256464,-3.502567,-1.683166,5.163759,3.187405,-0.846919,2.086221
0,4.88501,3.954592,3.736113,2.079943,-4.281054,-5.217751,-4.681599,-3.694677,-5.200172,0.116145,0.85822,3.446063,1.035263,2.962648
0,2.845875,4.461864,2.955114,3.625618,1.685677,-6.93419,-3.098255,-1.553836,-4.780793,0.671132,-2.603539,0.86952,0.178927,1.676888
0,-0.672387,1.254997,1.064142,2.38506,6.07032,-2.912423,-1.56137,0.987549,-1.508634,-1.046564,-1.5011,-0.300722,-1.868998,-0.388616
0,-2.678876,-2.961392,0.098567,-0.411217,3.678354,3.196194,-0.64853,2.231874,2.280843,-1.951869,-0.160092,0.352203,-1.804961,-1.218584
0,-2.464165,-4.24213,0.278121,-1.658053,-1.308989,3.983471,-0.124935,2.577171,4.274776,0.359737,-2.239408,0.484044,0.694989,-0.615884
0,-1.891599,-3.314223,-0.448886,-1.769804,-3.929479,0.322068,0.173904,2.995294,5.515334,3.717279,-3.749925,0.127446,2.469187,-0.214084
0,-2.013395,-3.179871,-2.598516,-2.941302,-4.787071,-0.735169,-0.063409,3.041752,7.209172,4.56357,-0.570682,1.091766,1.739669,-0.756514
0,-2.275821,-3.623107,-4.17307,-4.131635,-4.154236,2.179138,-0.718845,1.679399,6.87392,2.623629,3.595483,2.705245,0.584494,-1.165848
0,-2.808206,-2.744169,-4.370204,-2.932513,0.806739,4.350114,-0.274354,-0.312023,2.467931,0.084755,3.211262,2.564615,0.923512,-0.96997
0,-4.011095,-1.498589,-4.1128,-0.525479,7.777971,4.186882,2.447841,-0.672387,-2.31349,-1.749714,-0.455164,0.801717,1.278854,-1.155803
0,-4.017373,-1.729624,-2.408917,0.340902,7.926134,3.727324,5.521612,0.92979,-2.749191,-2.830807,-2.80695,-0.137491,-0.123679,-1.639219
0,-0.555614,-1.660564,2.518156,0.490322,-0.583238,2.351158,5.593183,1.850164,-0.851942,-3.184893,-3.272787,0.328346,-2.195461,-0.826829
0,4.458097,1.472221,7.750347,2.298422,-6.970604,-1.187194,2.859686,0.163859,-1.988283,-3.261487,-3.33808,0.140002,-3.434763,1.036519
0,6.398038,5.683588,7.681287,4.367692,-3.354403,-3.355658,0.948625,-2.499322,-5.704933,-3.862931,-1.759759,-1.755992,-4.249664,1.463431
0,4.519623,6.441985,2.765515,3.584182,3.041752,-1.218584,0.908445,-3.549025,-6.826207,-4.239619,2.3047,-3.502567,-4.401594,0.171393
0,2.771793,3.859164,-0.549336,0.903422,1.946847,0.301978,-0.491577,-2.961392,-4.211995,-2.034741,5.272998,-3.005339,-1.900389,0.097311
0,3.183638,2.220573,-0.091033,-0.26682,-4.06132,-4.25343,-4.658997,-2.108823,-1.312756,3.231352,4.002305,-0.927279,2.898611,2.142724
0,2.963903,2.472954,-0.585749,-0.064665,-5.687355,-9.980337,-7.820662,-1.07921,0.84943,8.194838,1.243697,0.222873,6.109245,3.163548
0,-0.180182,1.057864,-4.116567,-1.184682,-1.92299,-7.990171,-6.655442,0.301978,3.89181,9.018528,0.948625,-0.509156,5.9096,1.432041
0,-3.919434,-2.79565,-6.21095,-3.12839,1.395627,0.403684,-3.253953,0.733913,6.134357,5.733813,1.631685,-1.295177,4.949047,-0.379827
0,-4.818462,-4.605006,-4.299889,-2.9074,2.526946,5.915878,-1.273832,-0.382338,4.125357,1.739669,-0.165115,-0.220362,4.640163,-0.27561
0,-2.965159,-1.944336,-1.901644,-0.672387,3.5101,5.334524,-0.745214,-0.941091,-0.118657,-0.448886,-3.041752,1.912945,2.302189,-0.279377
0,-0.914723,1.086744,-1.071676,0.60835,3.551536,3.605528,0.111123,0.522968,-1.065398,-1.585227,-3.132157,2.832063,-2.779326,-1.771059
0,-0.148792,0.247986,1.228629,0.544314,1.532491,3.653242,1.379304,1.694466,1.055353,-3.796383,-0.94988,2.025951,-6.169515,-2.298422
0,-0.432563,-2.480488,5.522868,1.241186,0.642252,3.533957,3.017895,0.468976,0.745214,-7.101189,-0.279377,0.859475,-5.196405,-0.541802
0,-1.168359,-3.110812,6.620284,2.274565,2.731613,2.752958,6.377948,-0.269332,-2.482999,-8.694577,-1.815006,0.040808,-3.541491,0.281888
0,-1.788638,-2.259498,2.371248,1.028985,3.098255,2.88731,10.667164,3.130902,-2.770537,-6.23983,-2.816995,-0.683688,-4.578637,-2.046041
0,-1.526212,-2.516901,-1.637963,-1.827563,-1.688188,2.555825,11.348969,7.838241,1.341636,-1.295177,-2.079943,-0.780371,-5.551747,-4.18186
0,0.098567,-2.476721,-0.682432,-2.377526,-6.405572,-0.772837,5.923412,7.359847,3.41844,2.102544,-0.964948,0.25552,-3.050542,-2.427751
0,2.499322,0.625929,2.166581,0.22664,-5.256675,-4.846086,-1.777338,1.130691,-0.173904,2.401383,-0.083499,0.851942,0.905934,1.329079
0,4.009839,4.498277,1.9029,2.098778,-1.409439,-5.349591,-6.747102,-4.553525,-3.850375,2.218062,1.478499,-0.60835,3.183638,3.129646
0,3.163548,4.378993,-1.326568,0.579471,-0.733913,-3.344358,-9.047408,-5.622062,-1.866487,4.238363,3.855397,-2.200483,4.998016,2.928746
0,0.574449,1.054097,-4.518367,-2.102544,-1.984516,-3.285343,-10.908244,-4.66402,2.589727,7.261909,5.804128,-0.82934,8.014028,2.991527
0,-1.064142,-0.05462,-6.065298,-2.64623,-1.03903,-4.879987,-11.062686,-5.118556,3.00785,7.830707,6.09041,2.236896,9.48311,3.284088
0,-0.078477,2.472954,-4.980438,-0.861987,0.947369,-3.801405,-7.09491,-6.17077,-0.587005,4.566081,4.008584,2.776815,6.377948,2.422729
0,1.78236,4.499533,-0.800461,1.493566,1.385582,0.303233,-0.948625,-5.373448,-3.247675,-0.539291,-0.338391,0.323323,0.681177,0.779115
0,1.759759,3.565348,3.683377,3.213773,2.280843,3.261487,3.301667,-2.362459,-3.13718,-4.44303,-4.979182,-1.738413,-3.772526,-0.633463
0,0.023229,1.58146,4.397827,3.507589,5.030663,3.703467,5.574348,1.78236,-2.24443,-5.566814,-6.832485,-2.618606,-6.175793,-2.161559
0,-1.145758,-0.138747,1.930524,1.846397,5.48771,4.540969,8.366859,5.694888,-1.373026,-4.621329,-5.111023,-4.522134,-7.127557,-3.827774
0,-1.233652,-2.495555,0.72889,-0.58826,1.439574,6.518578,10.510211,7.351058,0.288166,-3.631896,-2.521923,-6.094177,-6.177048,-4.095222
0,-1.619129,-4.705456,1.945591,-1.477243,-1.804961,6.174537,8.174748,5.720001,1.92299,-3.644452,-1.658053,-2.598516,-3.954592,-2.475465
0,-2.444075,-4.682854,2.314745,-0.689966,-0.600817,1.871509,1.982004,3.066865,2.077432,-3.310456,-1.650519,5.288066,-2.456631,-0.766559
0,-2.510623,-3.737369,0.45642,-0.784138,-0.109867,-2.92749,-2.588471,2.300933,1.907923,-0.856964,-0.04583,9.872353,-1.027729,0.049597
0,-1.907923,-4.787071,-1.185938,-2.744169,-4.223295,-4.473165,-2.818251,2.427751,3.220051,2.618606,3.158525,6.861364,2.72659,1.126924
0,-1.675632,-5.897044,-1.178404,-3.754947,-6.537413,-3.225073,-1.724601,0.560637,4.317467,3.702211,5.242863,1.251231,6.439474,2.479232
0,-1.227374,-2.417706,-0.902167,-1.437063,-1.0993,-1.686933,-2.170348,-2.366226,2.260753,1.346658,4.210739,-0.855709,4.376482,1.969448
0,0.782882,4.318723,-1.174637,1.948103,5.406094,-0.76907,-3.017895,-2.921212,-1.472221,-0.937324,1.168359,-0.512923,-2.28461,-0.534269
0,3.454853,7.770437,-1.251231,2.54578,3.351892,-0.192738,-2.891077,-1.665587,-2.549547,0.529246,-1.077954,-1.705767,-4.618817,-1.696978
0,4.436752,6.065298,-1.064142,0.627185,-3.854142,-0.109867,-2.852153,-2.410173,-0.867009,4.16177,-1.141991,-3.954592,0.735169,0.22664
0,3.285343,3.620595,-0.988805,-0.264309,-5.221518,-0.452653,-2.989016,-4.823484,-0.74898,4.80465,-0.157581,-4.191905,5.761436,2.367481
0,1.542536,2.622373,-0.372293,0.880821,0.314534,-0.563148,-1.17966,-4.411639,-3.425973,1.030241,0.307,-2.491788,3.845352,1.900389
0,0.333369,1.026474,0.8984,1.576437,3.65952,-0.83813,2.002094,-1.066654,-4.94528,-2.342369,0.345925,-1.283877,0.0948,0.539291
0,0.004395,-0.613373,1.286388,0.819295,1.114367,-2.552058,2.165326,-0.457675,-3.333057,-1.085488,0.651042,-1.01894,1.759759,1.26002
0,0.624674,0.776604,0.485299,0.725124,-1.017684,-4.489488,-1.572671,-4.119079,-1.950614,1.847653,0.441352,-0.264309,5.512823,3.001572
0,0.872032,2.953858,0.379827,1.872765,1.700744,-2.608561,-3.287855,-5.055775,-2.608561,0.598305,-1.354192,1.44083,3.029196,2.067387
0,-1.247464,0.011928,1.090511,1.306478,4.773259,4.146702,1.071676,2.102544,-1.124412,-4.180604,-3.462387,3.266509,-5.431207,-2.323535
0,-4.540969,-6.587638,0.330857,-2.16407,2.692688,10.14608,6.516067,11.846196,5.284299,-5.806639,-3.61934,4.205717,-11.627718,-6.676787
0,-4.76447,-8.199861,-1.298944,-4.491999,-2.421473,9.095121,6.252386,14.185426,10.944657,-2.052319,-2.32479,3.213773,-10.935868,-7.20415
0,-1.030241,-2.544525,-0.059642,-2.007117,-4.186882,2.343625,1.919223,7.160203,8.624262,1.244952,-1.968193,0.0948,-5.976148,-3.615573
0,1.885321,2.472954,3.42974,2.332324,-0.924768,-3.009106,0.003139,-2.010884,0.559381,-0.222873,-2.155281,-2.965159,-0.421262,1.027729
0,0.672387,1.414462,3.341847,2.854664,2.558336,-3.453597,1.330335,-6.42064,-4.430474,-2.499322,0.05462,-3.090722,4.230829,3.436018
0,-1.497333,-1.46092,-1.477243,-0.461442,1.939313,-1.980749,1.379304,-5.664753,-3.380771,-0.861987,4.478187,-0.570682,6.524857,3.032963
0,-0.826829,-1.251231,-4.392805,-2.529457,-0.990061,-1.779849,-1.015173,-3.212517,-1.438319,1.987027,6.749613,1.513656,5.377215,1.806217
0,0.956159,0.063409,-1.803706,-1.278854,-1.876532,-2.132679,-2.647486,-1.457153,-1.892855,1.58146,4.710478,1.714556,2.668831,1.393116
0,0.820551,-0.44763,0.990061,0.02574,-0.97876,-1.816262,-2.653764,-0.446375,-1.823796,0.288166,1.658053,1.345402,1.624151,1.413206
0,0.285655,-0.776604,-0.386105,-0.792927,-2.058598,-1.929268,-3.355658,0.369782,0.485299,2.583449,0.874543,1.030241,2.578426,1.093022
0,1.828818,1.366748,-2.004606,-1.242441,-4.378993,-3.055564,-4.692899,0.669876,1.244952,5.825473,0.855709,-0.31579,3.070632,0.82934
0,3.51889,4.053786,0.178927,1.007639,-2.422729,-3.194938,-4.077643,-0.269332,-1.953125,4.150469,-1.074187,-2.400128,1.553836,0.927279
0,2.64623,5.121068,2.780582,3.872976,4.09271,-0.903422,-1.704511,-2.208017,-5.026896,-1.177149,-3.822751,-3.001572,-1.184682,0.51669
0,1.066654,5.496499,1.897878,4.224551,7.276976,2.112589,-0.18646,-3.914412,-3.772526,-3.758714,-4.637652,-1.640474,-3.468665,-0.6975
0,1.482266,5.535424,0.210317,2.42524,2.76677,3.53019,0.730146,-4.424196,-0.521712,-2.469187,-3.55907,-0.522968,-3.874232,-1.310245
0,1.774826,2.986505,0.834363,0.679921,-2.776815,3.417184,3.319245,-3.251442,0.558125,-1.646753,-2.547036,-0.62844,-2.102544,-0.61714
0,-1.252486,-2.583449,1.158314,-0.721357,-2.154025,3.15727,6.285032,0.254264,0.731402,-2.372504,-2.057342,-0.042063,-0.067176,-0.337135
0,-5.363403,-7.454019,-1.054097,-2.490533,1.312756,3.083188,6.021351,5.66852,3.57916,-1.786127,-1.268809,2.225596,-0.587005,-1.884066
0,-5.848075,-8.182282,-2.35367,-3.582927,0.96997,2.511878,3.1083,9.78446,7.528101,-0.06592,-0.176415,3.776293,-3.756203,-3.713512
0,-2.88731,-5.38726,-0.423774,-2.570893,-1.394372,1.034007,1.483521,9.154136,7.633574,-0.156325,0.87831,2.416451,-6.168259,-3.611806
0,-0.593283,-1.964426,0.791672,-0.643508,-0.249242,-1.001361,1.379304,4.725546,3.382027,-1.246208,2.328557,-0.16637,-4.839807,-1.901644
0,-0.284399,-0.067176,-1.303967,-0.160092,2.475465,-2.670087,-0.587005,0.725124,-0.947369,-0.020718,4.160514,-0.882077,-0.372293,-0.06592
0,0.27561,-0.06592,-2.377526,-0.855709,1.023962,-3.221307,-4.109034,-1.349169,-3.081932,2.411428,4.947791,0.127446,4.40285,1.874021
0,1.956892,-0.319557,0.720101,-0.438841,-3.078165,-2.982738,-4.655231,-3.643197,-4.606261,2.132679,3.625618,0.11489,7.136346,4.036207
0,3.114578,1.384327,3.53019,1.410695,-3.542747,-2.648741,-1.391861,-6.551225,-6.143146,-0.199017,1.000106,-1.577693,6.84253,4.772004
0,2.935024,4.488232,2.082454,2.649997,-0.312023,-1.673121,0.673643,-7.563259,-5.910856,-0.821807,-1.462176,-2.338602,4.15298,3.098255
0,2.354925,5.627085,0.177671,2.408917,1.34038,0.674899,-1.405672,-6.38046,-3.717279,-0.221618,-2.903633,-0.453909,1.331591,1.168359
0,1.826307,3.586693,1.720834,1.928013,0.482788,2.633674,-4.016117,-5.478921,-1.833841,-1.405672,-2.764259,1.946847,0.227896,1.147014
0,0.868265,1.241186,2.860942,1.62164,0.514179,1.504867,-3.061842,-4.271009,-0.835619,-2.569637,-1.157059,1.926757,-0.029507,1.388094
0,-0.468976,0.600817,-0.71759,0.298211,1.438319,-1.595272,0.068432,0.707545,1.302711,0.308256,0.145025,0.104845,-1.439574,-0.751492
0,-1.54128,-0.143769,-5.035685,-1.899133,0.404939,-2.504345,1.689444,7.878421,4.854875,4.94528,-0.607095,-0.587005,-3.569115,-3.885532
0,-2.049808,-2.176626,-4.276032,-2.811973,-1.78236,-0.479021,1.346658,10.323123,7.029618,5.370937,-2.265776,0.308256,-4.1015,-4.438007
0,-1.930524,-3.12839,-0.632207,-1.713301,-1.98326,0.81804,1.026474,6.247363,6.327723,1.941824,-2.095011,0.294444,-2.760492,-2.411428
0,-1.154547,-1.611595,0.258031,-0.595794,-0.60835,0.240452,1.425762,2.126401,4.425451,0.072198,-0.08601,-1.596527,-1.791149,-1.104322
0,-0.268076,-0.177671,-0.786649,-0.578215,0.221618,1.389349,1.970704,1.919223,2.290888,-0.072198,0.946114,-3.04803,-2.277076,-1.528724
0,0.037041,-0.564404,0.814273,-0.006906,1.474732,5.310667,2.868476,1.325312,-1.558859,-3.178615,-0.124935,-2.260753,-2.773048,-1.364237
0,0.170137,-0.539291,4.208228,2.024696,3.999794,6.939213,4.389038,-2.793138,-6.778493,-8.232507,-1.281366,-0.514179,-1.984516,0.394894
0,0.859475,1.271321,4.499533,3.236374,4.370204,2.844619,5.095955,-5.853097,-9.078798,-8.321656,-0.962437,0.569426,-0.348436,1.817518
0,1.258764,2.048553,1.346658,1.74218,0.543058,-2.781838,3.196194,-4.117823,-5.603228,-2.377526,0.020718,1.492311,1.474732,1.761014
0,-0.026996,-0.279377,-0.879565,-0.607095,-2.781838,-4.549758,-0.701267,-1.62164,0.37606,2.341113,0.943602,2.820762,3.350636,1.614106
0,-2.041019,-3.125879,-0.565659,-1.306478,-1.503611,-3.651986,-4.095222,-2.074921,3.491266,2.061109,2.436541,3.374493,4.715501,2.287121
0,-2.176626,-3.495033,-0.497855,-1.19975,0.136235,-4.15298,-5.741346,-1.753481,2.933768,1.853931,4.200694,2.510623,4.851108,2.530713
0,-0.083499,-2.048553,-2.187927,-2.154025,-2.816995,-5.330757,-6.361625,2.351158,1.793661,5.432463,4.323746,1.646753,4.014862,1.42074
0,1.702,-0.328346,-3.436018,-2.899866,-5.92969,-3.339335,-6.155703,4.956581,1.465942,7.76667,2.159048,1.484777,2.579682,-0.024485
0,1.616617,1.808728,-2.089988,-1.056609,-2.418962,1.655542,-4.050019,1.234907,0.559381,3.49001,-0.435074,0.386105,0.02574,-0.723868
0,1.026474,3.77127,0.953647,2.126401,4.09271,5.187616,-0.379827,-3.705978,-1.265042,-3.482477,-1.791149,-2.319768,-3.272787,-0.941091
0,1.425762,3.689655,3.166059,3.178615,4.633885,4.581149,2.268287,-2.77556,-2.108823,-5.369681,-2.40515,-4.238363,-4.931468,-1.113112
0,2.007117,2.118868,3.14848,1.891599,-0.172648,1.570159,2.741658,1.514912,-1.046564,-1.877788,-3.37826,-3.55028,-3.837819,-1.129435
0,1.268809,1.787383,1.730879,1.310245,-1.472221,-0.931046,3.390816,2.317256,0.461442,0.500367,-4.599983,-2.087477,-2.508111,-1.169615
0,-0.57696,2.376271,0.705034,2.211784,2.511878,-1.799939,5.820451,0.212828,1.228629,-0.976249,-5.092188,-2.068643,-2.989016,-1.565137
0,-2.037252,0.598305,0.345925,1.717068,3.857909,-1.233652,7.177782,0.595794,1.892855,-2.039763,-3.921945,-2.298422,-2.913678,-1.74218
0,-2.255731,-3.34938,-0.86952,-1.506122,-1.03903,0.4966,4.400339,3.11709,2.716545,0.418751,-0.81804,-0.559381,0.221618,-0.972482
0,-1.605317,-4.992994,-3.099511,-4.325001,-5.201428,2.711523,-0.143769,2.698966,2.180393,2.732868,3.03673,2.356181,3.535213,0.116145
0,-0.936069,-2.662553,-3.776293,-3.483732,-2.356181,3.709745,-2.048553,-1.248719,-0.525479,0.538035,5.396049,3.979704,2.879776,0.534269
0,-0.651042,0.108612,-1.596527,-0.296955,3.616828,2.073665,-1.970704,-4.309934,-3.373237,-3.545258,5.191383,3.832796,0.171393,0.747725
0,-0.33588,0.689966,0.761537,1.506122,5.216495,-1.087999,-3.525168,-4.093966,-3.889299,-3.525168,3.417184,3.061842,0.279377,1.526212
0,0.583238,0.45642,1.123157,1.031496,1.632941,-2.838341,-5.535424,-1.803706,-2.499322,0.414984,1.149525,1.960659,2.334835,1.990794
0,1.739669,0.517945,1.733391,0.543058,-2.216806,-2.378782,-3.517634,1.212306,-1.38056,2.132679,-1.334102,0.418751,1.406928,1.123157
0,1.994561,-0.178927,4.27352,1.190961,-3.253953,-2.202994,1.334102,3.451086,-0.900911,-0.401172,-2.749191,-0.614629,-2.028463,0.084755
0,0.983782,-1.256253,4.886266,1.345402,-2.362459,-3.46992,2.523179,2.577171,0.349692,-1.891599,-1.283877,-0.472743,-2.316001,0.384849
0,-0.28691,-0.711312,0.42754,-0.127446,-1.074187,-3.296644,-1.125668,-0.712567,2.337346,1.026474,1.646753,-0.324579,1.261276,0.95867
0,-0.781627,0.705034,-4.147958,-1.555092,-0.033274,0.030763,-3.122112,-1.550069,3.114578,3.965892,1.836352,-1.307734,2.830807,0.013184
0,-0.531757,0.24673,-2.56587,-1.101811,0.075965,2.78686,-0.011928,1.865231,1.993305,2.451608,-1.362981,-2.383805,0.013184,-1.474732
0,-0.075965,-1.167104,1.778593,0.197761,-0.828085,1.699489,3.282832,4.024907,0.732657,-0.604584,-3.279065,-2.030974,-2.34488,-1.388094
0,0.245475,0.170137,0.981271,0.337135,-0.982527,0.211573,2.255731,0.224129,0.698755,-0.643508,-1.282621,-0.864498,-1.015173,-0.333369
0,0.200272,3.649475,-3.614317,-0.14628,1.135713,2.283354,-0.249242,-5.359636,0.954903,0.683688,0.727635,-0.550592,0.630952,-0.344669
0,-0.193994,4.373971,-3.641941,0.57696,3.65952,4.219529,-0.170137,-5.613273,0.314534,-0.259287,-0.922257,-1.111856,-0.280632,-0.94988
0,-0.384849,1.254997,1.337869,1.825051,3.316734,1.177149,1.145758,-1.005128,-0.752747,-1.853931,-3.222562,-1.168359,-1.276343,-0.393639
0,-0.053364,-1.162081,3.030452,1.32029,0.802972,-2.397616,1.163337,2.106311,-1.565137,-1.202261,-1.857698,-0.18646,-0.46772,0.466465
0,0.190227,-0.359737,-0.627185,-0.428796,0.274354,0.349692,1.223607,1.237419,-2.552058,-0.7088,1.195983,1.071676,-0.529246,-0.338391
0,-0.009417,0.754003,-1.990794,-0.560637,2.150258,4.783304,2.562103,-0.259287,-3.582927,-3.010362,1.447108,1.887833,-2.629907,-1.542536
0,0.269332,-0.214084,2.069898,0.97876,1.278854,0.83813,2.378782,0.288166,-2.982738,-3.909389,-0.118657,2.185416,-2.747936,-0.317045
0,1.394372,-1.696978,4.480699,0.905934,-4.327512,-8.680765,-1.155803,1.807473,-0.256775,0.877054,0.762792,2.174115,1.310245,2.403895
0,1.531235,-2.457886,0.957414,-1.666843,-8.116989,-10.39846,-4.405361,2.656275,2.058598,6.118034,3.660775,2.121379,4.986716,2.955114
0,-0.666109,-3.586693,-2.452864,-3.231352,-4.160514,-1.707023,-3.611806,2.589727,1.727113,4.120334,4.105267,2.005861,3.9119,0.956159
0,-2.869731,-4.32249,-0.538035,-1.470965,2.77556,5.079632,-0.914723,1.482266,0.425029,-2.077432,1.136969,1.174637,0.521712,-0.403684
0,-1.931779,-1.744691,2.331068,1.155803,4.078899,2.828296,-0.412473,-0.77786,1.152036,-3.360681,-1.524957,-0.775349,-1.001361,-0.013184
0,0.844408,3.081932,0.948625,1.642986,0.740191,-0.715079,-1.577693,-2.87601,3.242652,0.310767,-1.533746,-2.702733,-1.325312,-0.078477
0,1.290155,4.551014,-1.924246,0.590772,0.480277,1.797428,-1.130691,-2.779326,3.319245,1.131946,-0.45642,-2.918701,-2.516901,-1.433296
0,-0.915979,1.030241,-2.008373,-0.171393,3.576648,5.707445,1.168359,-0.310767,0.743958,-1.799939,-0.283143,-1.693211,-2.903633,-2.140213
0,-1.685677,-1.784871,-1.01894,-0.607095,2.845875,4.572359,2.850897,2.137702,-1.457153,-1.654286,-1.111856,-0.964948,-0.755259,-1.366748
0,0.521712,0.307,-1.464687,-0.804228,-2.199228,0.80925,2.986505,1.935546,-1.442086,2.122634,-2.226851,-1.085488,1.140736,-0.602072
0,2.022184,3.305433,-1.016429,0.259287,-3.355658,-0.820551,2.636185,-0.840641,-0.85822,2.077432,-2.771793,-0.23543,-0.000628,-0.399917
0,0.259287,1.858953,1.926757,2.058598,1.511145,-1.393116,2.290888,-3.061842,-1.310245,-2.965159,-1.861464,1.914201,-1.585227,0.357225
0,-1.635452,-1.830074,3.65073,2.092499,3.707234,-3.334313,1.376793,-2.117612,-1.826307,-4.519623,0.049597,2.696455,0.050853,1.639219
0,0.111123,-1.734646,1.725857,0.193994,-1.572671,-5.148691,-0.62844,0.178927,-1.443341,1.016429,1.103067,0.630952,3.370726,2.197972
0,3.713512,2.378782,-0.201528,-0.470232,-6.689343,-5.363403,-3.707234,-0.490322,-1.40065,6.003772,0.806739,-1.52119,4.66402,2.275821
0,4.478187,5.054519,0.54808,1.228629,-3.921945,-5.062053,-6.59266,-4.265987,-2.599772,4.371459,0.800461,-0.765304,3.893066,2.832063
